#Title: diamond cw0.533 4.22e12 60Hz [10x30]
#Inst: POWGEN.prm
#Binning: ddperp   0.0130986    0.0988195
#Bank: 1
#2theta   lambda   d-value   dp-value   counts
  49.4641113      0.1004101      0.1200000      0.4500000      0.1365035
  49.4158065      0.1023245      0.1224000      0.4500000      0.1533594
  49.3656818      0.1042718      0.1248480      0.4500000      0.1511089
  49.3136740      0.1062522      0.1273450      0.4500000      0.1475415
  49.2597180      0.1082661      0.1298919      0.4500000      0.1556865
  49.2037470      0.1103137      0.1324897      0.4500000      0.1472320
  49.1456926      0.1123955      0.1351395      0.4500000      0.1582785
  49.0854844      0.1145116      0.1378423      0.4500000      0.1605464
  49.0230502      0.1166625      0.1405991      0.4500000      0.1641108
  48.9583159      0.1188483      0.1434111      0.4500000      0.1724526
  48.8912059      0.1210693      0.1462793      0.4500000      0.1686627
  48.8216426      0.1233257      0.1492049      0.4500000      0.1672303
  48.7495465      0.1256179      0.1521890      0.4500000      0.1730319
  48.6748367      0.1279458      0.1552328      0.4500000      0.1797249
  48.5974302      0.1303098      0.1583375      0.4500000      0.1797920
  48.5172426      0.1327100      0.1615042      0.4500000      0.1816102
  48.4341877      0.1351464      0.1647343      0.4500000      0.1766744
  48.3481777      0.1376193      0.1680290      0.4500000      0.1828725
  48.2591233      0.1401286      0.1713895      0.4500000      0.1659749
  48.1669337      0.1426744      0.1748173      0.4500000      0.1697442
  48.0715168      0.1452567      0.1783137      0.4500000      0.1790769
  47.9727790      0.1478755      0.1818800      0.4500000      0.1746805
  47.8706256      0.1505308      0.1855176      0.4500000      0.1762238
  47.7649609      0.1532224      0.1892279      0.4500000      0.1682829
  47.6556881      0.1559502      0.1930125      0.4500000      0.1803381
  47.5427095      0.1587140      0.1968727      0.4500000      0.1695531
  47.4259267      0.1615136      0.2008102      0.4500000      0.1698322
  47.3052410      0.1643488      0.2048264      0.4500000      0.1750944
  47.1805530      0.1672192      0.2089229      0.4500000      0.1685483
  47.0517634      0.1701245      0.2131014      0.4500000      0.1603048
  46.9187726      0.1730643      0.2173634      0.4500000      0.1679454
  46.7814816      0.1760381      0.2217107      0.4500000      0.1710168
  46.6397915      0.1790454      0.2261449      0.4500000      0.1725287
  46.4936045      0.1820857      0.2306678      0.4500000      0.1690486
  46.3428233      0.1851584      0.2352811      0.4500000      0.1703009
  46.1873522      0.1882627      0.2399867      0.4500000      0.1712336
  46.0270970      0.1913980      0.2447865      0.4500000      0.1678425
  45.8619653      0.1945634      0.2496822      0.4500000      0.1699560
  45.6918666      0.1977581      0.2546759      0.4500000      0.1626226
  45.5167134      0.2009812      0.2597694      0.4500000      0.1655613
  45.3364206      0.2042317      0.2649648      0.4500000      0.1622454
  45.1509064      0.2075086      0.2702641      0.4500000      0.1687136
  44.9600928      0.2108108      0.2756693      0.4500000      0.1620973
  44.7639055      0.2141370      0.2811827      0.4500000      0.1703370
  44.5622745      0.2174862      0.2868064      0.4500000      0.1628573
  44.3551347      0.2208569      0.2925425      0.4500000      0.1666475
  44.1424260      0.2242478      0.2983934      0.4500000      0.1720807
  43.9240938      0.2276575      0.3043612      0.4500000      0.1503138
  43.7000896      0.2310846      0.3104484      0.4500000      0.1453402
  43.4703709      0.2345274      0.3166574      0.4500000      0.1534284
  43.2349023      0.2379844      0.3229906      0.4500000      0.1476421
  42.9936552      0.2414540      0.3294504      0.4500000      0.1373045
  42.7466086      0.2449344      0.3360394      0.4500000      0.1493240
  42.4937493      0.2484238      0.3427602      0.4500000      0.1374949
  42.2350724      0.2519205      0.3496154      0.4500000      0.1338374
  41.9705815      0.2554226      0.3566077      0.4500000      0.1573226
  41.7002889      0.2589282      0.3637398      0.4500000      0.1569926
  41.4242163      0.2624354      0.3710146      0.4500000      0.1626326
  41.1423944      0.2659421      0.3784349      0.4500000      0.1644982
  40.8548639      0.2694466      0.3860036      0.4500000      0.1677152
  40.5616749      0.2729466      0.3937237      0.4500000      0.1718441
  40.2628879      0.2764401      0.4015982      0.4500000      0.1697935
  39.9585731      0.2799252      0.4096301      0.4500000      0.1666242
  39.6488109      0.2833997      0.4178227      0.4500000      0.1516139
  39.3336920      0.2868616      0.4261792      0.4500000      0.1848317
  39.0133172      0.2903088      0.4347028      0.4500000      0.1718031
  38.6877972      0.2937392      0.4433968      0.4500000      0.1464898
  38.3572530      0.2971509      0.4522648      0.4500000      0.1424845
  38.0218151      0.3005418      0.4613101      0.4500000      0.1398413
  37.6816237      0.3039099      0.4705363      0.4500000      0.1509318
  37.3368285      0.3072532      0.4799470      0.4500000      0.1655135
  36.9875880      0.3105698      0.4895459      0.4500000      0.1493776
  36.6340694      0.3138579      0.4993368      0.4500000      0.1748756
  36.2764485      0.3171155      0.5093236      0.4500000      0.1771749
  35.9149085      0.3203410      0.5195101      0.4500000      0.1451956
  35.5496404      0.3235326      0.5299003      0.4500000      0.1282035
  35.1808418      0.3266885      0.5404983      0.4500000      0.1684257
  34.8087166      0.3298073      0.5513082      0.4500000      0.1301606
  34.4334747      0.3328874      0.5623344      0.4500000      0.1552120
  34.0553308      0.3359274      0.5735811      0.4500000      0.1648308
  33.6745045      0.3389259      0.5850527      0.4500000      0.1424741
  33.2912188      0.3418816      0.5967538      0.4500000      0.1161358
  32.9057004      0.3447933      0.6086888      0.4500000      0.1552089
  32.5181783      0.3476598      0.6208626      0.4500000      0.1346573
  32.1288835      0.3504803      0.6332799      0.4500000      0.1187505
  31.7380482      0.3532537      0.6459455      0.4500000      0.1475121
  31.3459052      0.3559791      0.6588644      0.4500000      0.1176061
  30.9526872      0.3586558      0.6720416      0.4500000      0.1183167
  30.5586263      0.3612832      0.6854825      0.4500000      0.1299476
  30.1639532      0.3638607      0.6991921      0.4500000      0.1471687
  29.7688967      0.3663877      0.7131760      0.4500000      0.2378782
  29.3736833      0.3688639      0.7274395      0.4500000      0.1339766
  28.9785362      0.3712889      0.7419883      0.4500000      0.1069858
  28.5836752      0.3736626      0.7568281      0.4500000      0.1537790
  28.1893162      0.3759847      0.7719646      0.4500000      0.1167968
  27.7956703      0.3782552      0.7874039      0.4500000      0.1480501
  27.4029440      0.3804741      0.8031520      0.4500000      0.1357521
  27.0113384      0.3826415      0.8192150      0.4500000      0.1026202
  26.6210489      0.3847575      0.8355993      0.4500000      0.0770710
  26.2322653      0.3868224      0.8523113      0.4500000      0.0692551
  25.8451708      0.3888364      0.8693575      0.4500000      0.0708699
  25.4599422      0.3907999      0.8867447      0.4500000      0.0669985
  25.0767500      0.3927132      0.9044796      0.4500000      0.0831357
  24.6957574      0.3945769      0.9225692      0.4500000      0.0511143
  24.3171210      0.3963914      0.9410206      0.4500000      0.0350779
  23.9409901      0.3981573      0.9598410      0.4500000      0.0324931
  23.5675071      0.3998752      0.9790378      0.4500000      0.0305911
  23.1968070      0.4015458      0.9986185      0.4500000      0.0100003
  22.8290177      0.4031696      1.0185909      0.4500000      0.0000678
  60.0397429      0.1200721      0.1200000      0.5500000      0.1647350
  59.9844396      0.1223712      0.1224000      0.5500000      0.1640504
  59.9270340      0.1247103      0.1248480      0.5500000      0.1810999
  59.8674516      0.1270897      0.1273450      0.5500000      0.1806202
  59.8056159      0.1295100      0.1298919      0.5500000      0.1844919
  59.7414480      0.1319716      0.1324897      0.5500000      0.1884493
  59.6748667      0.1344748      0.1351395      0.5500000      0.1988501
  59.6057887      0.1370201      0.1378423      0.5500000      0.1975737
  59.5341282      0.1396079      0.1405991      0.5500000      0.1879457
  59.4597973      0.1422385      0.1434111      0.5500000      0.2032894
  59.3827058      0.1449124      0.1462793      0.5500000      0.1945888
  59.3027609      0.1476297      0.1492049      0.5500000      0.1938822
  59.2198678      0.1503909      0.1521890      0.5500000      0.1963780
  59.1339293      0.1531963      0.1552328      0.5500000      0.1958774
  59.0448459      0.1560460      0.1583375      0.5500000      0.1977147
  58.9525159      0.1589404      0.1615042      0.5500000      0.2019400
  58.8568352      0.1618797      0.1647343      0.5500000      0.2039409
  58.7576978      0.1648640      0.1680290      0.5500000      0.1901716
  58.6549953      0.1678935      0.1713895      0.5500000      0.1899536
  58.5486173      0.1709683      0.1748173      0.5500000      0.1931555
  58.4384514      0.1740886      0.1783137      0.5500000      0.1953590
  58.3243834      0.1772542      0.1818800      0.5500000      0.1963353
  58.2062972      0.1804653      0.1855176      0.5500000      0.1900461
  58.0840748      0.1837218      0.1892279      0.5500000      0.1876807
  57.9575969      0.1870237      0.1930125      0.5500000      0.1832331
  57.8267425      0.1903707      0.1968727      0.5500000      0.1855321
  57.6913895      0.1937627      0.2008102      0.5500000      0.1875920
  57.5514145      0.1971995      0.2048264      0.5500000      0.1886370
  57.4066933      0.2006808      0.2089229      0.5500000      0.1975474
  57.2571008      0.2042062      0.2131014      0.5500000      0.1973219
  57.1025115      0.2077754      0.2173634      0.5500000      0.1934319
  56.9427996      0.2113878      0.2217107      0.5500000      0.1980706
  56.7778392      0.2150430      0.2261449      0.5500000      0.1913149
  56.6075049      0.2187403      0.2306678      0.5500000      0.1881812
  56.4316715      0.2224792      0.2352811      0.5500000      0.1910721
  56.2502151      0.2262587      0.2399867      0.5500000      0.1912761
  56.0630126      0.2300782      0.2447865      0.5500000      0.1876880
  55.8699430      0.2339368      0.2496822      0.5500000      0.1921283
  55.6708868      0.2378335      0.2546759      0.5500000      0.1843344
  55.4657272      0.2417673      0.2597694      0.5500000      0.1917740
  55.2543502      0.2457370      0.2649648      0.5500000      0.1908903
  55.0366449      0.2497414      0.2702641      0.5500000      0.1947402
  54.8125043      0.2537793      0.2756693      0.5500000      0.1863164
  54.5818254      0.2578494      0.2811827      0.5500000      0.1891087
  54.3445101      0.2619501      0.2868064      0.5500000      0.1910504
  54.1004654      0.2660800      0.2925425      0.5500000      0.1904389
  53.8496041      0.2702374      0.2983934      0.5500000      0.1938285
  53.5918452      0.2744206      0.3043612      0.5500000      0.2099860
  53.3271145      0.2786279      0.3104484      0.5500000      0.2081528
  53.0553453      0.2828574      0.3166574      0.5500000      0.2097334
  52.7764784      0.2871072      0.3229906      0.5500000      0.2099309
  52.4904635      0.2913752      0.3294504      0.5500000      0.2142011
  52.1972589      0.2956593      0.3360394      0.5500000      0.2329498
  51.8968325      0.2999575      0.3427602      0.5500000      0.2117781
  51.5891623      0.3042674      0.3496154      0.5500000      0.1999832
  51.2742366      0.3085868      0.3566077      0.5500000      0.2081271
  50.9520547      0.3129133      0.3637398      0.5500000      0.2010685
  50.6226273      0.3172445      0.3710146      0.5500000      0.1990733
  50.2859770      0.3215779      0.3784349      0.5500000      0.1963133
  49.9421383      0.3259110      0.3860036      0.5500000      0.1969584
  49.5911586      0.3302413      0.3937237      0.5500000      0.1989689
  49.2330976      0.3345661      0.4015982      0.5500000      0.2105475
  48.8680284      0.3388829      0.4096301      0.5500000      0.1922512
  48.4960370      0.3431890      0.4178227      0.5500000      0.1831230
  48.1172230      0.3474818      0.4261792      0.5500000      0.2180144
  47.7316990      0.3517585      0.4347028      0.5500000      0.1986029
  47.3395913      0.3560166      0.4433968      0.5500000      0.1756587
  46.9410393      0.3602535      0.4522648      0.5500000      0.1606688
  46.5361957      0.3644664      0.4613101      0.5500000      0.1592408
  46.1252258      0.3686528      0.4705363      0.5500000      0.1633441
  45.7083081      0.3728101      0.4799470      0.5500000      0.1837202
  45.2856330      0.3769358      0.4895459      0.5500000      0.1495493
  44.8574029      0.3810274      0.4993368      0.5500000      0.1744510
  44.4238319      0.3850826      0.5093236      0.5500000      0.1727185
  43.9851446      0.3890989      0.5195101      0.5500000      0.1310692
  43.5415762      0.3930741      0.5299003      0.5500000      0.1149791
  43.0933715      0.3970059      0.5404983      0.5500000      0.1647327
  42.6407841      0.4008924      0.5513082      0.5500000      0.1353331
  42.1840759      0.4047314      0.5623344      0.5500000      0.1862563
  41.7235163      0.4085209      0.5735811      0.5500000      0.2083653
  41.2593809      0.4122593      0.5850527      0.5500000      0.1774709
  40.7919515      0.4159448      0.5967538      0.5500000      0.1476880
  40.3215144      0.4195757      0.6086888      0.5500000      0.2040379
  39.8483600      0.4231506      0.6208626      0.5500000      0.1786835
  39.3727817      0.4266680      0.6332799      0.5500000      0.1372637
  38.8950749      0.4301268      0.6459455      0.5500000      0.1653087
  38.4155366      0.4335257      0.6588644      0.5500000      0.1358899
  37.9344638      0.4368638      0.6720416      0.5500000      0.1354690
  37.4521532      0.4401402      0.6854825      0.5500000      0.1498349
  36.9689001      0.4433539      0.6991921      0.5500000      0.1683596
  36.4849975      0.4465045      0.7131760      0.5500000      0.2742824
  36.0007357      0.4495912      0.7274395      0.5500000      0.1507820
  35.5164009      0.4526138      0.7419883      0.5500000      0.1202266
  35.0322753      0.4555717      0.7568281      0.5500000      0.1632814
  34.5486357      0.4584650      0.7719646      0.5500000      0.1310572
  34.0657533      0.4612933      0.7874039      0.5500000      0.1703796
  33.5838930      0.4640568      0.8031520      0.5500000      0.1560447
  33.1033129      0.4667554      0.8192150      0.5500000      0.1376351
  32.6242638      0.4693895      0.8355993      0.5500000      0.1240784
  32.1469888      0.4719591      0.8523113      0.5500000      0.1077243
  31.6717229      0.4744648      0.8693575      0.5500000      0.1214652
  31.1986928      0.4769070      0.8867447      0.5500000      0.1345694
  30.7281164      0.4792861      0.9044796      0.5500000      0.1738983
  30.2602027      0.4816027      0.9225692      0.5500000      0.1231262
  29.7951518      0.4838575      0.9410206      0.5500000      0.1119005
  29.3331545      0.4860513      0.9598410      0.5500000      0.1154183
  28.8743922      0.4881847      0.9790378      0.5500000      0.2058281
  28.4190372      0.4902587      0.9986185      0.5500000      0.1497854
  27.9672521      0.4922740      1.0185909      0.5500000      0.1062304
  27.5191906      0.4942316      1.0389627      0.5500000      0.1265924
  27.0749968      0.4961324      1.0597420      0.5500000      0.0820562
  26.6348057      0.4979775      1.0809368      0.5500000      0.0761459
  26.1987433      0.4997678      1.1025556      0.5500000      0.0678036
  25.7669266      0.5015043      1.1246067      0.5500000      0.0603589
  25.3394638      0.5031882      1.1470988      0.5500000      0.0532054
  24.9164548      0.5048206      1.1700408      0.5500000      0.0410254
  24.4979907      0.5064024      1.1934416      0.5500000      0.0408578
  24.0841548      0.5079349      1.2173104      0.5500000      0.0194645
  23.6750222      0.5094191      1.2416566      0.5500000      0.0097270
  23.2706604      0.5108562      1.2664898      0.5500000      0.0001060
  70.3595739      0.1382746      0.1200000      0.6500000      0.1860359
  70.2991715      0.1409346      0.1224000      0.6500000      0.1747791
  70.2364508      0.1436415      0.1248480      0.6500000      0.1832957
  70.1713276      0.1463959      0.1273450      0.6500000      0.1901695
  70.1037157      0.1491984      0.1298919      0.6500000      0.1784996
  70.0335259      0.1520494      0.1324897      0.6500000      0.1861754
  69.9606663      0.1549496      0.1351395      0.6500000      0.1789512
  69.8850424      0.1578995      0.1378423      0.6500000      0.1867048
  69.8065569      0.1608996      0.1405991      0.6500000      0.1785383
  69.7251095      0.1639504      0.1434111      0.6500000      0.1777739
  69.6405974      0.1670523      0.1462793      0.6500000      0.1770479
  69.5529147      0.1702058      0.1492049      0.6500000      0.1763275
  69.4619526      0.1734114      0.1521890      0.6500000      0.1699617
  69.3675996      0.1766695      0.1552328      0.6500000      0.1656911
  69.2697412      0.1799805      0.1583375      0.6500000      0.1717567
  69.1682600      0.1833446      0.1615042      0.6500000      0.1700271
  69.0630358      0.1867624      0.1647343      0.6500000      0.1722160
  68.9539454      0.1902340      0.1680290      0.6500000      0.1754721
  68.8408629      0.1937597      0.1713895      0.6500000      0.1793553
  68.7236596      0.1973398      0.1748173      0.6500000      0.1818179
  68.6022040      0.2009745      0.1783137      0.6500000      0.1862705
  68.4763621      0.2046638      0.1818800      0.6500000      0.1848815
  68.3459970      0.2084080      0.1855176      0.6500000      0.1827571
  68.2109697      0.2122071      0.1892279      0.6500000      0.1924015
  68.0711384      0.2160610      0.1930125      0.6500000      0.1890591
  67.9263595      0.2199698      0.1968727      0.6500000      0.1864682
  67.7764868      0.2239334      0.2008102      0.6500000      0.1883295
  67.6213725      0.2279515      0.2048264      0.6500000      0.1852190
  67.4608669      0.2320240      0.2089229      0.6500000      0.1927463
  67.2948188      0.2361506      0.2131014      0.6500000      0.1829863
  67.1230755      0.2403310      0.2173634      0.6500000      0.1969259
  66.9454833      0.2445647      0.2217107      0.6500000      0.1914836
  66.7618877      0.2488512      0.2261449      0.6500000      0.1978133
  66.5721338      0.2531900      0.2306678      0.6500000      0.2004733
  66.3760662      0.2575803      0.2352811      0.6500000      0.2109622
  66.1735300      0.2620216      0.2399867      0.6500000      0.2117112
  65.9643705      0.2665129      0.2447865      0.6500000      0.2077133
  65.7484342      0.2710533      0.2496822      0.6500000      0.1988277
  65.5255689      0.2756419      0.2546759      0.6500000      0.1990074
  65.2956242      0.2802774      0.2597694      0.6500000      0.2032656
  65.0584520      0.2849589      0.2649648      0.6500000      0.1994450
  64.8139074      0.2896848      0.2702641      0.6500000      0.2116613
  64.5618483      0.2944539      0.2756693      0.6500000      0.2039306
  64.3021373      0.2992647      0.2811827      0.6500000      0.2067920
  64.0346409      0.3041155      0.2868064      0.6500000      0.2090826
  63.7592314      0.3090046      0.2925425      0.6500000      0.2001675
  63.4757867      0.3139302      0.2983934      0.6500000      0.2015330
  63.1841911      0.3188905      0.3043612      0.6500000      0.1978539
  62.8843365      0.3238832      0.3104484      0.6500000      0.1938971
  62.5761225      0.3289064      0.3166574      0.6500000      0.1963331
  62.2594574      0.3339577      0.3229906      0.6500000      0.1932916
  61.9342588      0.3390349      0.3294504      0.6500000      0.1945034
  61.6004545      0.3441354      0.3360394      0.6500000      0.2192660
  61.2579832      0.3492568      0.3427602      0.6500000      0.1919875
  60.9067949      0.3543963      0.3496154      0.6500000      0.1805120
  60.5468520      0.3595512      0.3566077      0.6500000      0.1904630
  60.1781297      0.3647187      0.3637398      0.6500000      0.1968930
  59.8006170      0.3698960      0.3710146      0.6500000      0.1906289
  59.4143169      0.3750799      0.3784349      0.6500000      0.1870904
  59.0192472      0.3802674      0.3860036      0.6500000      0.1922068
  58.6154411      0.3854555      0.3937237      0.6500000      0.1917666
  58.2029474      0.3906408      0.4015982      0.6500000      0.2012963
  57.7818314      0.3958203      0.4096301      0.6500000      0.1909567
  57.3521749      0.4009906      0.4178227      0.6500000      0.1806750
  56.9140764      0.4061485      0.4261792      0.6500000      0.2178503
  56.4676519      0.4112905      0.4347028      0.6500000      0.2018126
  56.0130341      0.4164135      0.4433968      0.6500000      0.1808656
  55.5503733      0.4215139      0.4522648      0.6500000      0.1758218
  55.0798370      0.4265886      0.4613101      0.6500000      0.1762096
  54.6016096      0.4316342      0.4705363      0.6500000      0.1882127
  54.1158924      0.4366475      0.4799470      0.6500000      0.2402273
  53.6229032      0.4416252      0.4895459      0.6500000      0.2085267
  53.1228759      0.4465641      0.4993368      0.6500000      0.2458366
  52.6160598      0.4514612      0.5093236      0.6500000      0.2506860
  52.1027192      0.4563134      0.5195101      0.6500000      0.2032894
  51.5831325      0.4611177      0.5299003      0.6500000      0.1939554
  51.0575915      0.4658713      0.5404983      0.6500000      0.2523158
  50.5264005      0.4705715      0.5513082      0.6500000      0.1779154
  49.9898756      0.4752155      0.5623344      0.6500000      0.2240146
  49.4483431      0.4798009      0.5735811      0.6500000      0.2291212
  48.9021391      0.4843253      0.5850527      0.6500000      0.1888778
  48.3516078      0.4887864      0.5967538      0.6500000      0.1470989
  47.7971008      0.4931822      0.6086888      0.6500000      0.2010906
  47.2389756      0.4975105      0.6208626      0.6500000      0.1636248
  46.6775948      0.5017696      0.6332799      0.6500000      0.1254152
  46.1133243      0.5059578      0.6459455      0.6500000      0.1466105
  45.5465325      0.5100736      0.6588644      0.6500000      0.1130172
  44.9775892      0.5141155      0.6720416      0.6500000      0.1005456
  44.4068641      0.5180825      0.6854825      0.6500000      0.1081462
  43.8347256      0.5219734      0.6991921      0.6500000      0.1260636
  43.2615401      0.5257873      0.7131760      0.6500000      0.2476064
  42.6876706      0.5295235      0.7274395      0.6500000      0.1500578
  42.1134759      0.5331813      0.7419883      0.6500000      0.1280410
  41.5393092      0.5367603      0.7568281      0.6500000      0.1927161
  40.9655177      0.5402602      0.7719646      0.6500000      0.1571910
  40.3924415      0.5436808      0.7874039      0.6500000      0.2142841
  39.8204127      0.5470221      0.8031520      0.6500000      0.1957601
  39.2497552      0.5502841      0.8192150      0.6500000      0.1653641
  38.6807832      0.5534670      0.8355993      0.6500000      0.1255308
  38.1138015      0.5565712      0.8523113      0.6500000      0.1181102
  37.5491047      0.5595971      0.8693575      0.6500000      0.1262474
  36.9869762      0.5625453      0.8867447      0.6500000      0.1407413
  36.4276890      0.5654163      0.9044796      0.6500000      0.1842654
  35.8715042      0.5682110      0.9225692      0.6500000      0.1382689
  35.3186716      0.5709301      0.9410206      0.6500000      0.1204833
  34.7694293      0.5735745      0.9598410      0.6500000      0.1162356
  34.2240033      0.5761452      0.9790378      0.6500000      0.2046348
  33.6826078      0.5786432      0.9986185      0.6500000      0.1464155
  33.1454453      0.5810696      1.0185909      0.6500000      0.1248977
  32.6127060      0.5834256      1.0389627      0.6500000      0.1647426
  32.0845688      0.5857124      1.0597420      0.6500000      0.1152818
  31.5612005      0.5879311      1.0809368      0.6500000      0.1099372
  31.0427567      0.5900831      1.1025556      0.6500000      0.1132486
  30.5293816      0.5921697      1.1246067      0.6500000      0.1081551
  30.0212083      0.5941922      1.1470988      0.6500000      0.1101734
  29.5183593      0.5961519      1.1700408      0.6500000      0.1085711
  29.0209463      0.5980502      1.1934416      0.6500000      0.1448687
  28.5290709      0.5998886      1.2173104      0.6500000      0.1004326
  28.0428247      0.6016683      1.2416566      0.6500000      0.1058593
  27.5622897      0.6033908      1.2664898      0.6500000      0.0930027
  27.0875387      0.6050576      1.2918196      0.6500000      0.2075523
  26.6186354      0.6066699      1.3176560      0.6500000      0.1256289
  26.1556352      0.6082292      1.3440091      0.6500000      0.0649444
  25.6985849      0.6097369      1.3708893      0.6500000      0.2782052
  25.2475236      0.6111943      1.3983070      0.6500000      0.0407319
  24.8024828      0.6126028      1.4262732      0.6500000      0.0279847
  24.3634870      0.6139639      1.4547986      0.6500000      0.0182549
  23.9305535      0.6152787      1.4838946      0.6500000      0.0062541
  80.3733574      0.1548672      0.1200000      0.7500000      0.1875337
  80.3098177      0.1578608      0.1224000      0.7500000      0.1896156
  80.2438144      0.1609081      0.1248480      0.7500000      0.1961049
  80.1752564      0.1640097      0.1273450      0.7500000      0.1930443
  80.1040496      0.1671664      0.1298919      0.7500000      0.1957541
  80.0300970      0.1703788      0.1324897      0.7500000      0.1844407
  79.9532983      0.1736476      0.1351395      0.7500000      0.1872658
  79.8735501      0.1769735      0.1378423      0.7500000      0.1886179
  79.7907457      0.1803571      0.1405991      0.7500000      0.1946796
  79.7047752      0.1837991      0.1434111      0.7500000      0.1944884
  79.6155253      0.1873001      0.1462793      0.7500000      0.1830480
  79.5228792      0.1908607      0.1492049      0.7500000      0.1957899
  79.4267168      0.1944815      0.1521890      0.7500000      0.1971942
  79.3269144      0.1981630      0.1552328      0.7500000      0.2006336
  79.2233450      0.2019059      0.1583375      0.7500000      0.1939188
  79.1158778      0.2057105      0.1615042      0.7500000      0.1982301
  79.0043785      0.2095775      0.1647343      0.7500000      0.1958277
  78.8887093      0.2135072      0.1680290      0.7500000      0.2015287
  78.7687288      0.2175001      0.1713895      0.7500000      0.1982843
  78.6442921      0.2215565      0.1748173      0.7500000      0.1993669
  78.5152505      0.2256768      0.1783137      0.7500000      0.1977445
  78.3814522      0.2298613      0.1818800      0.7500000      0.2018107
  78.2427415      0.2341103      0.1855176      0.7500000      0.1976115
  78.0989596      0.2384239      0.1892279      0.7500000      0.1991555
  77.9499442      0.2428023      0.1930125      0.7500000      0.2024656
  77.7955298      0.2472456      0.1968727      0.7500000      0.1967397
  77.6355480      0.2517539      0.2008102      0.7500000      0.1951245
  77.4698270      0.2563271      0.2048264      0.7500000      0.1998596
  77.2981925      0.2609652      0.2089229      0.7500000      0.2007021
  77.1204674      0.2656679      0.2131014      0.7500000      0.1941050
  76.9364723      0.2704351      0.2173634      0.7500000      0.1951873
  76.7460253      0.2752665      0.2217107      0.7500000      0.1951141
  76.5489428      0.2801615      0.2261449      0.7500000      0.1932000
  76.3450395      0.2851199      0.2306678      0.7500000      0.1917370
  76.1341286      0.2901409      0.2352811      0.7500000      0.1936632
  75.9160224      0.2952239      0.2399867      0.7500000      0.1951975
  75.6905327      0.3003682      0.2447865      0.7500000      0.1977567
  75.4574708      0.3055730      0.2496822      0.7500000      0.1960299
  75.2166486      0.3108371      0.2546759      0.7500000      0.1969928
  74.9678787      0.3161596      0.2597694      0.7500000      0.1977228
  74.7109748      0.3215392      0.2649648      0.7500000      0.1949173
  74.4457527      0.3269747      0.2702641      0.7500000      0.2058823
  74.1720306      0.3324646      0.2756693      0.7500000      0.1980628
  73.8896300      0.3380072      0.2811827      0.7500000      0.1949495
  73.5983760      0.3436011      0.2868064      0.7500000      0.1972685
  73.2980985      0.3492442      0.2925425      0.7500000      0.1886971
  72.9886327      0.3549347      0.2983934      0.7500000      0.1861487
  72.6698198      0.3606706      0.3043612      0.7500000      0.1839055
  72.3415083      0.3664494      0.3104484      0.7500000      0.1742693
  72.0035544      0.3722690      0.3166574      0.7500000      0.1652871
  71.6558231      0.3781268      0.3229906      0.7500000      0.1573017
  71.2981891      0.3840202      0.3294504      0.7500000      0.1521946
  70.9305379      0.3899464      0.3360394      0.7500000      0.1596960
  70.5527662      0.3959025      0.3427602      0.7500000      0.1377597
  70.1647838      0.4018855      0.3496154      0.7500000      0.1343372
  69.7665136      0.4078923      0.3566077      0.7500000      0.1550644
  69.3578932      0.4139195      0.3637398      0.7500000      0.1661758
  68.9388756      0.4199637      0.3710146      0.7500000      0.1736386
  68.5094300      0.4260216      0.3784349      0.7500000      0.1837345
  68.0695431      0.4320893      0.3860036      0.7500000      0.2020292
  67.6192194      0.4381633      0.3937237      0.7500000      0.2098305
  67.1584823      0.4442397      0.4015982      0.7500000      0.2384995
  66.6873748      0.4503146      0.4096301      0.7500000      0.2287634
  66.2059603      0.4563840      0.4178227      0.7500000      0.2113602
  65.7143226      0.4624441      0.4261792      0.7500000      0.2554982
  65.2125671      0.4684906      0.4347028      0.7500000      0.2290421
  64.7008206      0.4745196      0.4433968      0.7500000      0.2084035
  64.1792319      0.4805268      0.4522648      0.7500000      0.1967159
  63.6479719      0.4865082      0.4613101      0.7500000      0.1925742
  63.1072334      0.4924597      0.4705363      0.7500000      0.1851364
  62.5572312      0.4983771      0.4799470      0.7500000      0.2194238
  61.9982019      0.5042564      0.4895459      0.7500000      0.1799801
  61.4304031      0.5100936      0.4993368      0.7500000      0.2108773
  60.8541136      0.5158847      0.5093236      0.7500000      0.2142001
  60.2696320      0.5216259      0.5195101      0.7500000      0.1705678
  59.6772765      0.5273133      0.5299003      0.7500000      0.1545333
  59.0773836      0.5329434      0.5404983      0.7500000      0.2101912
  58.4703072      0.5385125      0.5513082      0.7500000      0.1579312
  57.8564177      0.5440173      0.5623344      0.7500000      0.2014934
  57.2361001      0.5494545      0.5735811      0.7500000      0.2133614
  56.6097535      0.5548209      0.5850527      0.7500000      0.1816195
  55.9777891      0.5601136      0.5967538      0.7500000      0.1526780
  55.3406286      0.5653298      0.6086888      0.7500000      0.2259469
  54.6987033      0.5704669      0.6208626      0.7500000      0.2048385
  54.0524519      0.5755226      0.6332799      0.7500000      0.1696331
  53.4023192      0.5804945      0.6459455      0.7500000      0.2178486
  52.7487543      0.5853807      0.6588644      0.7500000      0.1725562
  52.0922093      0.5901792      0.6720416      0.7500000      0.1787117
  51.4331373      0.5948886      0.6854825      0.7500000      0.2019300
  50.7719911      0.5995074      0.6991921      0.7500000      0.2204855
  50.1092214      0.6040342      0.7131760      0.7500000      0.3775294
  49.4452759      0.6084682      0.7274395      0.7500000      0.1831219
  48.7805973      0.6128085      0.7419883      0.7500000      0.1397188
  48.1156221      0.6170543      0.7568281      0.7500000      0.1938791
  47.4507797      0.6212053      0.7719646      0.7500000      0.1449506
  46.7864909      0.6252612      0.7874039      0.7500000      0.1842652
  46.1231668      0.6292219      0.8031520      0.7500000      0.1568420
  45.4612082      0.6330873      0.8192150      0.7500000      0.1225214
  44.8010042      0.6368578      0.8355993      0.7500000      0.0897532
  44.1429319      0.6405338      0.8523113      0.7500000      0.0885943
  43.4873555      0.6441156      0.8693575      0.7500000      0.1145944
  42.8346258      0.6476040      0.8867447      0.7500000      0.1416917
  42.1850795      0.6509998      0.9044796      0.7500000      0.1971663
  41.5390391      0.6543038      0.9225692      0.7500000      0.1493863
  40.8968125      0.6575170      0.9410206      0.7500000      0.1382417
  40.2586927      0.6606406      0.9598410      0.7500000      0.1353169
  39.6249579      0.6636757      0.9790378      0.7500000      0.2571389
  38.9958710      0.6666236      0.9986185      0.7500000      0.1920873
  38.3716801      0.6694857      1.0185909      0.7500000      0.1259520
  37.7526182      0.6722633      1.0389627      0.7500000      0.1701181
  37.1389036      0.6749580      1.0597420      0.7500000      0.1162770
  36.5307400      0.6775713      1.0809368      0.7500000      0.1139864
  35.9283166      0.6801048      1.1025556      0.7500000      0.1164948
  35.3318085      0.6825600      1.1246067      0.7500000      0.1129576
  34.7413770      0.6849386      1.1470988      0.7500000      0.1101868
  34.1571700      0.6872423      1.1700408      0.7500000      0.1002204
  33.5793222      0.6894728      1.1934416      0.7500000      0.1510055
  33.0079558      0.6916317      1.2173104      0.7500000      0.1165783
  32.4431805      0.6937209      1.2416566      0.7500000      0.1128616
  31.8850943      0.6957419      1.2664898      0.7500000      0.1066339
  31.3337837      0.6976965      1.2918196      0.7500000      0.2571394
  30.7893243      0.6995865      1.3176560      0.7500000      0.1729706
  30.2517812      0.7014135      1.3440091      0.7500000      0.0985358
  29.7212093      0.7031792      1.3708893      0.7500000      0.5279306
  29.1976540      0.7048853      1.3983070      0.7500000      0.0987914
  28.6811518      0.7065335      1.4262732      0.7500000      0.0889896
  28.1717300      0.7081254      1.4547986      0.7500000      0.0861344
  27.6694081      0.7096626      1.4838946      0.7500000      0.0890616
  27.1741974      0.7111467      1.5135725      0.7500000      0.0795266
  26.6861022      0.7125794      1.5438440      0.7500000      0.0677581
  26.2051195      0.7139621      1.5747208      0.7500000      0.0577927
  25.7312399      0.7152964      1.6062153      0.7500000      0.0441327
  25.2644477      0.7165838      1.6383396      0.7500000      0.0342780
  24.8047215      0.7178256      1.6711064      0.7500000      0.0341834
  24.3520343      0.7190235      1.7045285      0.7500000      0.0128651
  23.9063544      0.7201787      1.7386191      0.7500000      0.0011109
  90.0307789      0.1697512      0.1200000      0.8500000      0.1815098
  89.9660170      0.1730484      0.1224000      0.8500000      0.1815345
  89.8987187      0.1764056      0.1248480      0.8500000      0.1744291
  89.8287881      0.1798237      0.1273450      0.8500000      0.1842225
  89.7561263      0.1833035      0.1298919      0.8500000      0.1798602
  89.6806305      0.1868458      0.1324897      0.8500000      0.1862606
  89.6021950      0.1904515      0.1351395      0.8500000      0.1776780
  89.5207100      0.1941214      0.1378423      0.8500000      0.1825935
  89.4360624      0.1978563      0.1405991      0.8500000      0.1756866
  89.3481353      0.2016569      0.1434111      0.8500000      0.1824314
  89.2568078      0.2055242      0.1462793      0.8500000      0.1762565
  89.1619552      0.2094588      0.1492049      0.8500000      0.1811767
  89.0634490      0.2134616      0.1521890      0.8500000      0.1785626
  88.9611564      0.2175331      0.1552328      0.8500000      0.1797017
  88.8549405      0.2216743      0.1583375      0.8500000      0.1830761
  88.7446605      0.2258857      0.1615042      0.8500000      0.1851982
  88.6301710      0.2301680      0.1647343      0.8500000      0.1830132
  88.5113225      0.2345218      0.1680290      0.8500000      0.1878642
  88.3879612      0.2389478      0.1713895      0.8500000      0.1878868
  88.2599289      0.2434465      0.1748173      0.8500000      0.1823776
  88.1270629      0.2480185      0.1783137      0.8500000      0.1816308
  87.9891963      0.2526642      0.1818800      0.8500000      0.1783615
  87.8461576      0.2573841      0.1855176      0.8500000      0.1790700
  87.6977711      0.2621786      0.1892279      0.8500000      0.1807459
  87.5438566      0.2670480      0.1930125      0.8500000      0.1795503
  87.3842296      0.2719926      0.1968727      0.8500000      0.1833363
  87.2187014      0.2770127      0.2008102      0.8500000      0.1801591
  87.0470790      0.2821084      0.2048264      0.8500000      0.1790639
  86.8691655      0.2872798      0.2089229      0.8500000      0.1768162
  86.6847599      0.2925270      0.2131014      0.8500000      0.1765469
  86.4936575      0.2978499      0.2173634      0.8500000      0.1783987
  86.2956500      0.3032483      0.2217107      0.8500000      0.1785367
  86.0905257      0.3087221      0.2261449      0.8500000      0.1796094
  85.8780696      0.3142709      0.2306678      0.8500000      0.1763430
  85.6580641      0.3198943      0.2352811      0.8500000      0.1769847
  85.4302888      0.3255919      0.2399867      0.8500000      0.1754707
  85.1945213      0.3313629      0.2447865      0.8500000      0.1729054
  84.9505372      0.3372068      0.2496822      0.8500000      0.1688329
  84.6981108      0.3431225      0.2546759      0.8500000      0.1717037
  84.4370158      0.3491092      0.2597694      0.8500000      0.1753732
  84.1670251      0.3551657      0.2649648      0.8500000      0.1659537
  83.8879122      0.3612908      0.2702641      0.8500000      0.1775623
  83.5994514      0.3674832      0.2756693      0.8500000      0.1714608
  83.3014186      0.3737412      0.2811827      0.8500000      0.1738550
  82.9935921      0.3800633      0.2868064      0.8500000      0.1757559
  82.6757530      0.3864476      0.2925425      0.8500000      0.1744191
  82.3476870      0.3928921      0.2983934      0.8500000      0.1788167
  82.0091842      0.3993947      0.3043612      0.8500000      0.1929054
  81.6600408      0.4059530      0.3104484      0.8500000      0.1977700
  81.3000599      0.4125647      0.3166574      0.8500000      0.2121383
  80.9290526      0.4192270      0.3229906      0.8500000      0.2175544
  80.5468391      0.4259371      0.3294504      0.8500000      0.2295074
  80.1532499      0.4326920      0.3360394      0.8500000      0.2641795
  79.7481269      0.4394887      0.3427602      0.8500000      0.2355964
  79.3313247      0.4463236      0.3496154      0.8500000      0.2196949
  78.9027120      0.4531934      0.3566077      0.8500000      0.2302382
  78.4621727      0.4600943      0.3637398      0.8500000      0.2213446
  78.0096073      0.4670225      0.3710146      0.8500000      0.2116857
  77.5449339      0.4739740      0.3784349      0.8500000      0.2036363
  77.0680899      0.4809447      0.3860036      0.8500000      0.1988304
  76.5790330      0.4879303      0.3937237      0.8500000      0.1891646
  76.0777424      0.4949263      0.4015982      0.8500000      0.1937161
  75.5642199      0.5019282      0.4096301      0.8500000      0.1686031
  75.0384911      0.5089314      0.4178227      0.8500000      0.1565722
  74.5006063      0.5159310      0.4261792      0.8500000      0.1824782
  73.9506415      0.5229222      0.4347028      0.8500000      0.1582683
  73.3886990      0.5299001      0.4433968      0.8500000      0.1367626
  72.8149082      0.5368596      0.4522648      0.8500000      0.1201709
  72.2294259      0.5437958      0.4613101      0.8500000      0.1146281
  71.6324371      0.5507036      0.4705363      0.8500000      0.1047314
  71.0241543      0.5575780      0.4799470      0.8500000      0.1241713
  70.4048187      0.5644138      0.4895459      0.8500000      0.1152978
  69.7746988      0.5712062      0.4993368      0.8500000      0.1606711
  69.1340911      0.5779501      0.5093236      0.8500000      0.1844991
  68.4833185      0.5846406      0.5195101      0.8500000      0.1683498
  67.8227305      0.5912730      0.5299003      0.8500000      0.1761775
  67.1527017      0.5978426      0.5404983      0.8500000      0.2601958
  66.4736306      0.6043449      0.5513082      0.8500000      0.1940247
  65.7859387      0.6107755      0.5623344      0.8500000      0.2628935
  65.0900686      0.6171300      0.5735811      0.8500000      0.2756943
  64.3864828      0.6234046      0.5850527      0.8500000      0.2345781
  63.6756616      0.6295953      0.5967538      0.8500000      0.1880820
  62.9581011      0.6356985      0.6086888      0.8500000      0.2636705
  62.2343119      0.6417108      0.6208626      0.8500000      0.1987402
  61.5048161      0.6476290      0.6332799      0.8500000      0.1576168
  60.7701460      0.6534501      0.6459455      0.8500000      0.1987095
  60.0308415      0.6591715      0.6588644      0.8500000      0.1504039
  59.2874480      0.6647907      0.6720416      0.8500000      0.1539817
  58.5405144      0.6703055      0.6854825      0.8500000      0.1701122
  57.7905906      0.6757140      0.6991921      0.8500000      0.1873501
  57.0382261      0.6810144      0.7131760      0.8500000      0.3454391
  56.2839673      0.6862055      0.7274395      0.8500000      0.1816148
  55.5283557      0.6912860      0.7419883      0.8500000      0.1677575
  54.7719266      0.6962550      0.7568281      0.8500000      0.2493194
  54.0152065      0.7011117      0.7719646      0.8500000      0.2080500
  53.2587125      0.7058559      0.7874039      0.8500000      0.2847627
  52.5029497      0.7104872      0.8031520      0.8500000      0.2675013
  51.7484110      0.7150056      0.8192150      0.8500000      0.2279370
  50.9955749      0.7194113      0.8355993      0.8500000      0.1854444
  50.2449052      0.7237048      0.8523113      0.8500000      0.1654438
  49.4968494      0.7278866      0.8693575      0.8500000      0.1566980
  48.7518386      0.7319574      0.8867447      0.8500000      0.1682703
  48.0102862      0.7359183      0.9044796      0.8500000      0.1997433
  47.2725879      0.7397702      0.9225692      0.8500000      0.1324960
  46.5391209      0.7435145      0.9410206      0.8500000      0.1085188
  45.8102437      0.7471523      0.9598410      0.8500000      0.0945512
  45.0862962      0.7506852      0.9790378      0.8500000      0.1707923
  44.3675994      0.7541147      0.9986185      0.8500000      0.1281056
  43.6544553      0.7574426      1.0185909      0.8500000      0.1103206
  42.9471472      0.7606704      1.0389627      0.8500000      0.1669145
  42.2459401      0.7638001      1.0597420      0.8500000      0.1156884
  41.5510804      0.7668336      1.0809368      0.8500000      0.1198530
  40.8627967      0.7697726      1.1025556      0.8500000      0.1270327
  40.1813000      0.7726193      1.1246067      0.8500000      0.1214592
  39.5067843      0.7753756      1.1470988      0.8500000      0.1342761
  38.8394268      0.7780435      1.1700408      0.8500000      0.1231324
  38.1793884      0.7806252      1.1934416      0.8500000      0.1608178
  37.5268146      0.7831227      1.2173104      0.8500000      0.1072061
  36.8818357      0.7855380      1.2416566      0.8500000      0.1125314
  36.2445676      0.7878734      1.2664898      0.8500000      0.1010951
  35.6151121      0.7901308      1.2918196      0.8500000      0.2502534
  34.9935577      0.7923123      1.3176560      0.8500000      0.1603995
  34.3799803      0.7944200      1.3440091      0.8500000      0.0956821
  33.7744434      0.7964559      1.3708893      0.8500000      0.5423898
  33.1769992      0.7984222      1.3983070      0.8500000      0.1066415
  32.5876887      0.8003206      1.4262732      0.8500000      0.0993540
  32.0065426      0.8021534      1.4547986      0.8500000      0.0948153
  31.4335816      0.8039223      1.4838946      0.8500000      0.0928096
  30.8688173      0.8056294      1.5135725      0.8500000      0.0924203
  30.3122523      0.8072765      1.5438440      0.8500000      0.0866530
  29.7638812      0.8088654      1.5747208      0.8500000      0.0853446
  29.2236908      0.8103980      1.6062153      0.8500000      0.0830095
  28.6916604      0.8118760      1.6383396      0.8500000      0.0820329
  28.1677628      0.8133012      1.6711064      0.8500000      0.1288450
  27.6519645      0.8146754      1.7045285      0.8500000      0.0761088
  27.1442258      0.8160000      1.7386191      0.8500000      0.0695091
  26.6445019      0.8172769      1.7733914      0.8500000      0.0606737
  26.1527427      0.8185075      1.8088593      0.8500000      0.0467997
  25.6688935      0.8196933      1.8450364      0.8500000      0.0661190
  25.1928951      0.8208360      1.8819372      0.8500000      0.0250500
  24.7246846      0.8219369      1.9195759      0.8500000      0.0138987
  24.2641954      0.8229975      1.9579674      0.8500000      0.0063553
  99.2826059      0.1828813      0.1200000      0.9500000      0.1773046
  99.2183915      0.1864500      0.1224000      0.9500000      0.1894411
  99.1516376      0.1900848      0.1248480      0.9500000      0.1903076
  99.0822463      0.1937864      0.1273450      0.9500000      0.1876494
  99.0101162      0.1975560      0.1298919      0.9500000      0.1902828
  98.9351421      0.2013945      0.1324897      0.9500000      0.1934428
  98.8572151      0.2053029      0.1351395      0.9500000      0.1824209
  98.7762225      0.2092821      0.1378423      0.9500000      0.1816718
  98.6920476      0.2133333      0.1405991      0.9500000      0.1847973
  98.6045696      0.2174572      0.1434111      0.9500000      0.1812056
  98.5136633      0.2216550      0.1462793      0.9500000      0.1818720
  98.4191996      0.2259274      0.1492049      0.9500000      0.1775485
  98.3210445      0.2302756      0.1521890      0.9500000      0.1747170
  98.2190598      0.2347003      0.1552328      0.9500000      0.1776098
  98.1131026      0.2392025      0.1583375      0.9500000      0.1689469
  98.0030252      0.2437831      0.1615042      0.9500000      0.1698051
  97.8886751      0.2484430      0.1647343      0.9500000      0.1711997
  97.7698948      0.2531829      0.1680290      0.9500000      0.1706740
  97.6465219      0.2580037      0.1713895      0.9500000      0.1733065
  97.5183887      0.2629063      0.1748173      0.9500000      0.1704189
  97.3853226      0.2678912      0.1783137      0.9500000      0.1706421
  97.2471454      0.2729593      0.1818800      0.9500000      0.1678756
  97.1036738      0.2781112      0.1855176      0.9500000      0.1631282
  96.9547192      0.2833475      0.1892279      0.9500000      0.1719628
  96.8000873      0.2886689      0.1930125      0.9500000      0.1697678
  96.6395787      0.2940758      0.1968727      0.9500000      0.1691924
  96.4729884      0.2995688      0.2008102      0.9500000      0.1744249
  96.3001060      0.3051482      0.2048264      0.9500000      0.1753577
  96.1207157      0.3108143      0.2089229      0.9500000      0.1795100
  95.9345964      0.3165675      0.2131014      0.9500000      0.1823912
  95.7415216      0.3224080      0.2173634      0.9500000      0.1816152
  95.5412599      0.3283358      0.2217107      0.9500000      0.1849537
  95.3335745      0.3343511      0.2261449      0.9500000      0.1894968
  95.1182242      0.3404536      0.2306678      0.9500000      0.1914696
  94.8949626      0.3466433      0.2352811      0.9500000      0.1989729
  94.6635393      0.3529200      0.2399867      0.9500000      0.1991204
  94.4236996      0.3592831      0.2447865      0.9500000      0.1990286
  94.1751849      0.3657322      0.2496822      0.9500000      0.2017111
  93.9177333      0.3722668      0.2546759      0.9500000      0.1989644
  93.6510797      0.3788859      0.2597694      0.9500000      0.2004612
  93.3749567      0.3855888      0.2649648      0.9500000      0.1969870
  93.0890946      0.3923744      0.2702641      0.9500000      0.2076937
  92.7932226      0.3992415      0.2756693      0.9500000      0.1997216
  92.4870689      0.4061886      0.2811827      0.9500000      0.1992351
  92.1703618      0.4132144      0.2868064      0.9500000      0.2056646
  91.8428306      0.4203171      0.2925425      0.9500000      0.1964091
  91.5042060      0.4274948      0.2983934      0.9500000      0.1912531
  91.1542216      0.4347454      0.3043612      0.9500000      0.1890603
  90.7926146      0.4420667      0.3104484      0.9500000      0.1783056
  90.4191269      0.4494562      0.3166574      0.9500000      0.1717973
  90.0335066      0.4569112      0.3229906      0.9500000      0.1561675
  89.6355091      0.4644289      0.3294504      0.9500000      0.1513059
  89.2248983      0.4720061      0.3360394      0.9500000      0.1648724
  88.8014483      0.4796396      0.3427602      0.9500000      0.1424035
  88.3649445      0.4873259      0.3496154      0.9500000      0.1372183
  87.9151859      0.4950612      0.3566077      0.9500000      0.1516257
  87.4519857      0.5028415      0.3637398      0.9500000      0.1549566
  86.9751738      0.5106626      0.3710146      0.9500000      0.1557153
  86.4845981      0.5185202      0.3784349      0.9500000      0.1598192
  85.9801264      0.5264097      0.3860036      0.9500000      0.1640387
  85.4616477      0.5343263      0.3937237      0.9500000      0.1684418
  84.9290745      0.5422650      0.4015982      0.9500000      0.1835625
  84.3823442      0.5502205      0.4096301      0.9500000      0.1756111
  83.8214207      0.5581875      0.4178227      0.9500000      0.1709616
  83.2462961      0.5661605      0.4261792      0.9500000      0.2178701
  82.6569919      0.5741339      0.4347028      0.9500000      0.2098406
  82.0535609      0.5821017      0.4433968      0.9500000      0.2073151
  81.4360880      0.5900582      0.4522648      0.9500000      0.2145158
  80.8046915      0.5979972      0.4613101      0.9500000      0.2337210
  80.1595238      0.6059127      0.4705363      0.9500000      0.2444620
  79.5007724      0.6137986      0.4799470      0.9500000      0.2999896
  78.8286601      0.6216487      0.4895459      0.9500000      0.2371617
  78.1434457      0.6294568      0.4993368      0.9500000      0.2745902
  77.4454232      0.6372167      0.5093236      0.9500000      0.2532579
  76.7349223      0.6449225      0.5195101      0.9500000      0.1835060
  76.0123077      0.6525680      0.5299003      0.9500000      0.1489907
  75.2779780      0.6601475      0.5404983      0.9500000      0.1899996
  74.5323647      0.6676550      0.5513082      0.9500000      0.1274945
  73.7759311      0.6750850      0.5623344      0.9500000      0.1522749
  73.0091704      0.6824320      0.5735811      0.9500000      0.1415265
  72.2326042      0.6896908      0.5850527      0.9500000      0.1035569
  71.4467799      0.6968564      0.5967538      0.9500000      0.0769725
  70.6522687      0.7039241      0.6086888      0.9500000      0.1359222
  69.8496633      0.7108893      0.6208626      0.9500000      0.1232212
  69.0395749      0.7177478      0.6332799      0.9500000      0.1284379
  68.2226307      0.7244957      0.6459455      0.9500000      0.1890748
  67.3994711      0.7311294      0.6588644      0.9500000      0.1616141
  66.5707467      0.7376456      0.6720416      0.9500000      0.1732394
  65.7371153      0.7440413      0.6854825      0.9500000      0.1970655
  64.8992394      0.7503140      0.6991921      0.9500000      0.2189037
  64.0577827      0.7564612      0.7131760      0.9500000      0.4095737
  63.2134081      0.7624811      0.7274395      0.9500000      0.2097964
  62.3667744      0.7683719      0.7419883      0.9500000      0.1628776
  61.5185340      0.7741323      0.7568281      0.9500000      0.2219846
  60.6693304      0.7797613      0.7719646      0.9500000      0.1794816
  59.8197961      0.7852582      0.7874039      0.9500000      0.2414595
  58.9705502      0.7906226      0.8031520      0.9500000      0.2181115
  58.1221970      0.7958543      0.8192150      0.9500000      0.1867858
  57.2753238      0.8009535      0.8355993      0.9500000      0.1520777
  56.4304995      0.8059205      0.8523113      0.9500000      0.1448878
  55.5882736      0.8107561      0.8693575      0.9500000      0.1771048
  54.7491748      0.8154610      0.8867447      0.9500000      0.2196354
  53.9137101      0.8200363      0.9044796      0.9500000      0.2912958
  53.0823641      0.8244834      0.9225692      0.9500000      0.2150500
  52.2555985      0.8288035      0.9410206      0.9500000      0.2006458
  51.4338515      0.8329985      0.9598410      0.9500000      0.1895592
  50.6175380      0.8370699      0.9790378      0.9500000      0.3760298
  49.8070490      0.8410198      0.9986185      0.9500000      0.2392939
  49.0027518      0.8448501      1.0185909      0.9500000      0.1447118
  48.2049905      0.8485629      1.0389627      0.9500000      0.1832824
  47.4140858      0.8521604      1.0597420      0.9500000      0.1059621
  46.6303356      0.8556450      1.0809368      0.9500000      0.0885620
  45.8540154      0.8590190      1.1025556      0.9500000      0.0841237
  45.0853788      0.8622847      1.1246067      0.9500000      0.0743663
  44.3246584      0.8654447      1.1470988      0.9500000      0.0933045
  43.5720657      0.8685013      1.1700408      0.9500000      0.1020611
  42.8277927      0.8714572      1.1934416      0.9500000      0.1510552
  42.0920119      0.8743149      1.2173104      0.9500000      0.1127785
  41.3648774      0.8770767      1.2416566      0.9500000      0.1230801
  40.6465255      0.8797454      1.2664898      0.9500000      0.1159854
  39.9370755      0.8823233      1.2918196      0.9500000      0.2971401
  39.2366308      0.8848131      1.3176560      0.9500000      0.1867656
  38.5452789      0.8872171      1.3440091      0.9500000      0.1196966
  37.8630930      0.8895379      1.3708893      0.9500000      0.5206387
  37.1901322      0.8917778      1.3983070      0.9500000      0.0959484
  36.5264427      0.8939394      1.4262732      0.9500000      0.0905385
  35.8720581      0.8960249      1.4547986      0.9500000      0.0856804
  35.2270003      0.8980366      1.4838946      0.9500000      0.0819376
  34.5912802      0.8999769      1.5135725      0.9500000      0.0808376
  33.9648985      0.9018481      1.5438440      0.9500000      0.0900447
  33.3478462      0.9036522      1.5747208      0.9500000      0.0915519
  32.7401050      0.9053914      1.6062153      0.9500000      0.0873763
  32.1416486      0.9070679      1.6383396      0.9500000      0.0815528
  31.5524426      0.9086838      1.6711064      0.9500000      0.1313874
  30.9724452      0.9102409      1.7045285      0.9500000      0.0834271
  30.4016081      0.9117413      1.7386191      0.9500000      0.0771260
  29.8398765      0.9131869      1.7733914      0.9500000      0.0731327
  29.2871900      0.9145795      1.8088593      0.9500000      0.0706222
  28.7434828      0.9159209      1.8450364      0.9500000      0.1194721
  28.2086843      0.9172129      1.8819372      0.9500000      0.0666592
  27.6827194      0.9184573      1.9195759      0.9500000      0.0606259
  27.1655089      0.9196555      1.9579674      0.9500000      0.0599013
 108.0821058      0.1942651      0.1200000      1.0500000      0.1777920
 108.0199819      0.1980724      0.1224000      1.0500000      0.1778738
 107.9553788      0.2019511      0.1248480      1.0500000      0.1759109
 107.8881992      0.2059023      0.1273450      1.0500000      0.1838916
 107.8183420      0.2099271      0.1298919      1.0500000      0.1796998
 107.7457021      0.2140267      0.1324897      1.0500000      0.1857675
 107.6701709      0.2182021      0.1351395      1.0500000      0.1833889
 107.5916353      0.2224546      0.1378423      1.0500000      0.1872864
 107.5099783      0.2267853      0.1405991      1.0500000      0.1909315
 107.4250785      0.2311953      0.1434111      1.0500000      0.1887849
 107.3368099      0.2356858      0.1462793      1.0500000      0.1959048
 107.2450420      0.2402578      0.1492049      1.0500000      0.1936329
 107.1496396      0.2449126      0.1521890      1.0500000      0.1929904
 107.0504625      0.2496512      0.1552328      1.0500000      0.1924326
 106.9473655      0.2544747      0.1583375      1.0500000      0.1927147
 106.8401983      0.2593843      0.1615042      1.0500000      0.1951146
 106.7288052      0.2643810      0.1647343      1.0500000      0.1916761
 106.6130250      0.2694659      0.1680290      1.0500000      0.1941410
 106.4926912      0.2746400      0.1713895      1.0500000      0.1928240
 106.3676311      0.2799043      0.1748173      1.0500000      0.1960441
 106.2376665      0.2852598      0.1783137      1.0500000      0.1965756
 106.1026130      0.2907075      0.1818800      1.0500000      0.1966465
 105.9622804      0.2962483      0.1855176      1.0500000      0.1959777
 105.8164718      0.3018831      0.1892279      1.0500000      0.1965306
 105.6649842      0.3076127      0.1930125      1.0500000      0.1980104
 105.5076083      0.3134380      0.1968727      1.0500000      0.1992161
 105.3441281      0.3193596      0.2008102      1.0500000      0.1984098
 105.1743208      0.3253784      0.2048264      1.0500000      0.1951367
 104.9979573      0.3314948      0.2089229      1.0500000      0.1965119
 104.8148017      0.3377096      0.2131014      1.0500000      0.1902377
 104.6246111      0.3440231      0.2173634      1.0500000      0.1913175
 104.4271361      0.3504359      0.2217107      1.0500000      0.1930826
 104.2221205      0.3569483      0.2261449      1.0500000      0.1921532
 104.0093016      0.3635604      0.2306678      1.0500000      0.1913979
 103.7884099      0.3702725      0.2352811      1.0500000      0.1885959
 103.5591696      0.3770847      0.2399867      1.0500000      0.1885761
 103.3212985      0.3839968      0.2447865      1.0500000      0.1862681
 103.0745082      0.3910087      0.2496822      1.0500000      0.1848576
 102.8185048      0.3981201      0.2546759      1.0500000      0.1848736
 102.5529886      0.4053305      0.2597694      1.0500000      0.1830489
 102.2776547      0.4126394      0.2649648      1.0500000      0.1805418
 101.9921935      0.4200461      0.2702641      1.0500000      0.1883899
 101.6962912      0.4275495      0.2756693      1.0500000      0.1777978
 101.3896301      0.4351488      0.2811827      1.0500000      0.1837331
 101.0718898      0.4428425      0.2868064      1.0500000      0.1791746
 100.7427471      0.4506294      0.2925425      1.0500000      0.1723550
 100.4018775      0.4585077      0.2983934      1.0500000      0.1719946
 100.0489561      0.4664756      0.3043612      1.0500000      0.1692319
  99.6836580      0.4745310      0.3104484      1.0500000      0.1611634
  99.3056600      0.4826718      0.3166574      1.0500000      0.1611874
  98.9146416      0.4908953      0.3229906      1.0500000      0.1520415
  98.5102865      0.4991987      0.3294504      1.0500000      0.1470211
  98.0922837      0.5075792      0.3360394      1.0500000      0.1651405
  97.6603293      0.5160334      0.3427602      1.0500000      0.1504438
  97.2141282      0.5245577      0.3496154      1.0500000      0.1510338
  96.7533957      0.5331485      0.3566077      1.0500000      0.1735518
  96.2778596      0.5418015      0.3637398      1.0500000      0.1832503
  95.7872620      0.5505125      0.3710146      1.0500000      0.1962931
  95.2813616      0.5592768      0.3784349      1.0500000      0.2016363
  94.7599356      0.5680895      0.3860036      1.0500000      0.2098597
  94.2227819      0.5769456      0.3937237      1.0500000      0.2129797
  93.6697220      0.5858394      0.4015982      1.0500000      0.2272468
  93.1006024      0.5947653      0.4096301      1.0500000      0.2078647
  92.5152975      0.6037173      0.4178227      1.0500000      0.1939671
  91.9137120      0.6126893      0.4261792      1.0500000      0.2347598
  91.2957828      0.6216747      0.4347028      1.0500000      0.1949923
  90.6614813      0.6306670      0.4433968      1.0500000      0.1673187
  90.0108156      0.6396593      0.4522648      1.0500000      0.1435295
  89.3438325      0.6486446      0.4613101      1.0500000      0.1309511
  88.6606191      0.6576156      0.4705363      1.0500000      0.1279591
  87.9613043      0.6665652      0.4799470      1.0500000      0.1650129
  87.2460605      0.6754858      0.4895459      1.0500000      0.1407548
  86.5151042      0.6843701      0.4993368      1.0500000      0.1827770
  85.7686973      0.6932105      0.5093236      1.0500000      0.1951840
  85.0071467      0.7019996      0.5195101      1.0500000      0.1596624
  84.2308050      0.7107298      0.5299003      1.0500000      0.1559203
  83.4400701      0.7193939      0.5404983      1.0500000      0.2386467
  82.6353840      0.7279844      0.5513082      1.0500000      0.1911476
  81.8172322      0.7364944      0.5623344      1.0500000      0.2911985
  80.9861420      0.7449167      0.5735811      1.0500000      0.3444771
  80.1426806      0.7532447      0.5850527      1.0500000      0.2957172
  79.2874526      0.7614719      0.5967538      1.0500000      0.2328487
  78.4210978      0.7695920      0.6086888      1.0500000      0.3311306
  77.5442879      0.7775992      0.6208626      1.0500000      0.2101980
  76.6577237      0.7854877      0.6332799      1.0500000      0.1595050
  75.7621311      0.7932525      0.6459455      1.0500000      0.1734933
  74.8582581      0.8008887      0.6588644      1.0500000      0.1110575
  73.9468702      0.8083917      0.6720416      1.0500000      0.0992037
  73.0287475      0.8157576      0.6854825      1.0500000      0.0901655
  72.1046800      0.8229828      0.6991921      1.0500000      0.0843126
  71.1754641      0.8300639      0.7131760      1.0500000      0.1724529
  70.2418985      0.8369982      0.7274395      1.0500000      0.1137131
  69.3047807      0.8437834      0.7419883      1.0500000      0.1160399
  68.3649033      0.8504175      0.7568281      1.0500000      0.1989436
  67.4230504      0.8568989      0.7719646      1.0500000      0.1762997
  66.4799947      0.8632265      0.7874039      1.0500000      0.2538559
  65.5364940      0.8693996      0.8031520      1.0500000      0.2363942
  64.5932892      0.8754178      0.8192150      1.0500000      0.2013522
  63.6511011      0.8812811      0.8355993      1.0500000      0.1695852
  62.7106289      0.8869898      0.8523113      1.0500000      0.1542559
  61.7725477      0.8925445      0.8693575      1.0500000      0.1462378
  60.8375072      0.8979461      0.8867447      1.0500000      0.1732782
  59.9061304      0.9031960      0.9044796      1.0500000      0.2226796
  58.9790123      0.9082954      0.9225692      1.0500000      0.1635962
  58.0567192      0.9132463      0.9410206      1.0500000      0.1509820
  57.1397883      0.9180504      0.9598410      1.0500000      0.1429308
  56.2287270      0.9227098      0.9790378      1.0500000      0.3077787
  55.3240130      0.9272270      0.9986185      1.0500000      0.2493251
  54.4260943      0.9316042      1.0185909      1.0500000      0.1823242
  53.5353895      0.9358440      1.0389627      1.0500000      0.2633704
  52.6522879      0.9399492      1.0597420      1.0500000      0.1855917
  51.7771503      0.9439225      1.0809368      1.0500000      0.1807717
  50.9103094      0.9477667      1.1025556      1.0500000      0.1901923
  50.0520707      0.9514848      1.1246067      1.0500000      0.1772398
  49.2027132      0.9550798      1.1470988      1.0500000      0.1533899
  48.3624902      0.9585546      1.1700408      1.0500000      0.1236998
  47.5316305      0.9619123      1.1934416      1.0500000      0.1503284
  46.7103391      0.9651560      1.2173104      1.0500000      0.0897904
  45.8987981      0.9682886      1.2416566      1.0500000      0.0780169
  45.0971681      0.9713133      1.2664898      1.0500000      0.0739258
  44.3055888      0.9742331      1.2918196      1.0500000      0.2671453
  43.5241804      0.9770509      1.3176560      1.0500000      0.1569128
  42.7530444      0.9797698      1.3440091      1.0500000      0.1004318
  41.9922645      0.9823928      1.3708893      1.0500000      0.5130873
  41.2419079      0.9849226      1.3983070      1.0500000      0.1042204
  40.5020259      0.9873623      1.4262732      1.0500000      0.0953715
  39.7726552      0.9897145      1.4547986      1.0500000      0.0945565
  39.0538185      0.9919822      1.4838946      1.0500000      0.0944013
  38.3455258      0.9941679      1.5135725      1.0500000      0.0909211
  37.6477746      0.9962744      1.5438440      1.0500000      0.0667017
  36.9605513      0.9983043      1.5747208      1.0500000      0.0602109
  36.2838318      1.0002600      1.6062153      1.0500000      0.0550548
  35.6175823      1.0021441      1.6383396      1.0500000      0.0565168
  34.9617598      1.0039590      1.6711064      1.0500000      0.1164552
  34.3163130      1.0057070      1.7045285      1.0500000      0.0688909
  33.6811828      1.0073904      1.7386191      1.0500000      0.0598249
  33.0563032      1.0090115      1.7733914      1.0500000      0.0525888
  32.4416016      1.0105725      1.8088593      1.0500000      0.0541424
  31.8369994      1.0120753      1.8450364      1.0500000      0.0849881
  31.2424125      1.0135221      1.8819372      1.0500000      0.0477892
  30.6577520      1.0149149      1.9195759      1.0500000      0.0461848
  30.0829245      1.0162555      1.9579674      1.0500000      0.0433464
 116.3866191      0.2039595      0.1200000      1.1500000      0.1643904
 116.3278448      0.2079725      0.1224000      1.1500000      0.1639221
 116.2667058      0.2120616      0.1248480      1.1500000      0.1685930
 116.2031075      0.2162282      0.1273450      1.1500000      0.1746537
 116.1369517      0.2204735      0.1298919      1.1500000      0.1774295
 116.0681364      0.2247987      0.1324897      1.1500000      0.1753221
 115.9965555      0.2292053      0.1351395      1.1500000      0.1784436
 115.9220989      0.2336944      0.1378423      1.1500000      0.1782012
 115.8446519      0.2382674      0.1405991      1.1500000      0.1758080
 115.7640958      0.2429256      0.1434111      1.1500000      0.1770584
 115.6803071      0.2476703      0.1462793      1.1500000      0.1799647
 115.5931574      0.2525029      0.1492049      1.1500000      0.1767661
 115.5025135      0.2574245      0.1521890      1.1500000      0.1807909
 115.4082373      0.2624366      0.1552328      1.1500000      0.1800601
 115.3101852      0.2675405      0.1583375      1.1500000      0.1763025
 115.2082082      0.2727374      0.1615042      1.1500000      0.1767097
 115.1021517      0.2780287      0.1647343      1.1500000      0.1802605
 114.9918553      0.2834156      0.1680290      1.1500000      0.1813714
 114.8771526      0.2888994      0.1713895      1.1500000      0.1784823
 114.7578711      0.2944813      0.1748173      1.1500000      0.1798110
 114.6338320      0.3001627      0.1783137      1.1500000      0.1764565
 114.5048496      0.3059446      0.1818800      1.1500000      0.1765209
 114.3707320      0.3118284      0.1855176      1.1500000      0.1801518
 114.2312800      0.3178151      0.1892279      1.1500000      0.1728172
 114.0862875      0.3239060      0.1930125      1.1500000      0.1764257
 113.9355410      0.3301020      0.1968727      1.1500000      0.1747250
 113.7788196      0.3364043      0.2008102      1.1500000      0.1700229
 113.6158950      0.3428139      0.2048264      1.1500000      0.1681980
 113.4465308      0.3493317      0.2089229      1.1500000      0.1715034
 113.2704830      0.3559587      0.2131014      1.1500000      0.1679862
 113.0874992      0.3626956      0.2173634      1.1500000      0.1668756
 112.8973193      0.3695433      0.2217107      1.1500000      0.1641759
 112.6996745      0.3765025      0.2261449      1.1500000      0.1630675
 112.4942879      0.3835737      0.2306678      1.1500000      0.1609315
 112.2808742      0.3907576      0.2352811      1.1500000      0.1624683
 112.0591395      0.3980545      0.2399867      1.1500000      0.1655201
 111.8287817      0.4054649      0.2447865      1.1500000      0.1645913
 111.5894902      0.4129889      0.2496822      1.1500000      0.1680626
 111.3409460      0.4206266      0.2546759      1.1500000      0.1709180
 111.0828220      0.4283781      0.2597694      1.1500000      0.1770413
 110.8147833      0.4362431      0.2649648      1.1500000      0.1749884
 110.5364870      0.4442213      0.2702641      1.1500000      0.1908157
 110.2475829      0.4523124      0.2756693      1.1500000      0.1890501
 109.9477135      0.4605156      0.2811827      1.1500000      0.1932049
 109.6365149      0.4688301      0.2868064      1.1500000      0.1990602
 109.3136170      0.4772549      0.2925425      1.1500000      0.1985136
 108.9786444      0.4857887      0.2983934      1.1500000      0.2035133
 108.6312168      0.4944302      0.3043612      1.1500000      0.2045812
 108.2709503      0.5031777      0.3104484      1.1500000      0.2071451
 107.8974578      0.5120291      0.3166574      1.1500000      0.2084219
 107.5103507      0.5209825      0.3229906      1.1500000      0.2081390
 107.1092397      0.5300353      0.3294504      1.1500000      0.2107739
 106.6937364      0.5391848      0.3360394      1.1500000      0.2285703
 106.2634547      0.5484279      0.3427602      1.1500000      0.2034880
 105.8180126      0.5577615      0.3496154      1.1500000      0.1891795
 105.3570341      0.5671818      0.3566077      1.1500000      0.1953339
 104.8801510      0.5766849      0.3637398      1.1500000      0.1883725
 104.3870051      0.5862666      0.3710146      1.1500000      0.1799719
 103.8772508      0.5959221      0.3784349      1.1500000      0.1677125
 103.3505575      0.6056465      0.3860036      1.1500000      0.1619972
 102.8066119      0.6154346      0.3937237      1.1500000      0.1600441
 102.2451214      0.6252806      0.4015982      1.1500000      0.1696038
 101.6658164      0.6351785      0.4096301      1.1500000      0.1516384
 101.0684537      0.6451220      0.4178227      1.1500000      0.1431145
 100.4528197      0.6551043      0.4261792      1.1500000      0.1671779
  99.8187331      0.6651184      0.4347028      1.1500000      0.1431838
  99.1660483      0.6751570      0.4433968      1.1500000      0.1285523
  98.4946589      0.6852124      0.4522648      1.1500000      0.1191463
  97.8045000      0.6952766      0.4613101      1.1500000      0.1319841
  97.0955518      0.7053414      0.4705363      1.1500000      0.1467871
  96.3678423      0.7153983      0.4799470      1.1500000      0.2047593
  95.6214496      0.7254388      0.4895459      1.1500000      0.1885512
  94.8565044      0.7354540      0.4993368      1.1500000      0.2428727
  94.0731920      0.7454350      0.5093236      1.1500000      0.2463509
  93.2717537      0.7553726      0.5195101      1.1500000      0.1989882
  92.4524884      0.7652578      0.5299003      1.1500000      0.1753370
  91.6157528      0.7750815      0.5404983      1.1500000      0.2429176
  90.7619617      0.7848346      0.5513082      1.1500000      0.1575121
  89.8915879      0.7945082      0.5623344      1.1500000      0.1808544
  89.0051608      0.8040934      0.5735811      1.1500000      0.1678767
  88.1032655      0.8135817      0.5850527      1.1500000      0.1455382
  87.1865402      0.8229646      0.5967538      1.1500000      0.1223884
  86.2556736      0.8322340      0.6086888      1.1500000      0.2137986
  85.3114021      0.8413821      0.6208626      1.1500000      0.1531441
  84.3545058      0.8504017      0.6332799      1.1500000      0.1498985
  83.3858045      0.8592855      0.6459455      1.1500000      0.2238815
  82.4061533      0.8680273      0.6588644      1.1500000      0.1994461
  81.4164376      0.8766207      0.6720416      1.1500000      0.2394638
  80.4175682      0.8850604      0.6854825      1.1500000      0.2826681
  79.4104759      0.8933412      0.6991921      1.1500000      0.3160051
  78.3961067      0.9014587      0.7131760      1.1500000      0.5135595
  77.3754158      0.9094088      0.7274395      1.1500000      0.2271141
  76.3493626      0.9171881      0.7419883      1.1500000      0.1523654
  75.3189061      0.9247939      0.7568281      1.1500000      0.1808868
  74.2849990      0.9322236      0.7719646      1.1500000      0.1143198
  73.2485841      0.9394755      0.7874039      1.1500000      0.1194174
  72.2105890      0.9465484      0.8031520      1.1500000      0.0925009
  71.1719228      0.9534413      0.8192150      1.1500000      0.0981186
  70.1334723      0.9601540      0.8355993      1.1500000      0.1066143
  69.0960983      0.9666866      0.8523113      1.1500000      0.1315432
  68.0606334      0.9730397      0.8693575      1.1500000      0.1650176
  67.0278793      0.9792142      0.8867447      1.1500000      0.1989305
  65.9986047      0.9852113      0.9044796      1.1500000      0.2566819
  64.9735438      0.9910328      0.9225692      1.1500000      0.1833579
  63.9533949      0.9966806      0.9410206      1.1500000      0.1579299
  62.9388197      1.0021570      0.9598410      1.1500000      0.1373487
  61.9304426      1.0074645      0.9790378      1.1500000      0.2420448
  60.9288505      1.0126058      0.9986185      1.1500000      0.1245929
  59.9345929      1.0175837      1.0185909      1.1500000      0.0887263
  58.9481818      1.0224015      1.0389627      1.1500000      0.1547977
  57.9700927      1.0270624      1.0597420      1.1500000      0.1121141
  57.0007649      1.0315696      1.0809368      1.1500000      0.1064727
  56.0406025      1.0359268      1.1025556      1.1500000      0.1059541
  55.0899754      1.0401373      1.1246067      1.1500000      0.0939337
  54.1492203      1.0442049      1.1470988      1.1500000      0.0987133
  53.2186419      1.0481332      1.1700408      1.1500000      0.0761130
  52.2985142      1.0519258      1.1934416      1.1500000      0.0803871
  51.3890818      1.0555864      1.2173104      1.1500000      0.0462314
  50.4905611      1.0591188      1.2416566      1.1500000      0.0341159
  49.6031419      1.0625266      1.2664898      1.1500000      0.0104894
  48.7269886      1.0658134      1.2918196      1.1500000      0.0007026
  47.8622415      1.0689829      1.3176560      1.1500000      0.0044281
  47.0090183      1.0720387      1.3440091      1.1500000      0.0026849
  46.1674154      1.0749843      1.3708893      1.1500000      0.0025636
  45.3375089      1.0778232      1.3983070      1.1500000      0.0012036
  44.5193564      1.0805587      1.4262732      1.1500000      0.0001347
 124.1591811      0.2120637      0.1200000      1.2500000      0.1674205
 124.1047021      0.2162505      0.1224000      1.2500000      0.1742772
 124.0480153      0.2205176      0.1248480      1.2500000      0.1806453
 123.9890313      0.2248664      0.1273450      1.2500000      0.1743590
 123.9276570      0.2292984      0.1298919      1.2500000      0.1709674
 123.8637952      0.2338149      0.1324897      1.2500000      0.1715215
 123.7973452      0.2384174      0.1351395      1.2500000      0.1740199
 123.7282019      0.2431074      0.1378423      1.2500000      0.1753714
 123.6562563      0.2478862      0.1405991      1.2500000      0.1803670
 123.5813947      0.2527554      0.1434111      1.2500000      0.1767554
 123.5034989      0.2577164      0.1462793      1.2500000      0.1786799
 123.4224461      0.2627708      0.1492049      1.2500000      0.1734241
 123.3381083      0.2679200      0.1521890      1.2500000      0.1764314
 123.2503527      0.2731655      0.1552328      1.2500000      0.1737213
 123.1590409      0.2785088      0.1583375      1.2500000      0.1752271
 123.0640291      0.2839514      0.1615042      1.2500000      0.1725556
 122.9651678      0.2894948      0.1647343      1.2500000      0.1776232
 122.8623015      0.2951406      0.1680290      1.2500000      0.1707453
 122.7552686      0.3008901      0.1713895      1.2500000      0.1758406
 122.6439011      0.3067450      0.1748173      1.2500000      0.1733824
 122.5280243      0.3127067      0.1783137      1.2500000      0.1786891
 122.4074569      0.3187767      0.1818800      1.2500000      0.1794261
 122.2820102      0.3249563      0.1855176      1.2500000      0.1770687
 122.1514884      0.3312472      0.1892279      1.2500000      0.1804598
 122.0156881      0.3376506      0.1930125      1.2500000      0.1792570
 121.8743981      0.3441681      0.1968727      1.2500000      0.1795576
 121.7273990      0.3508009      0.2008102      1.2500000      0.1782792
 121.5744633      0.3575504      0.2048264      1.2500000      0.1809643
 121.4153548      0.3644179      0.2089229      1.2500000      0.1799522
 121.2498286      0.3714046      0.2131014      1.2500000      0.1841139
 121.0776307      0.3785119      0.2173634      1.2500000      0.1851660
 120.8984977      0.3857407      0.2217107      1.2500000      0.1863031
 120.7121570      0.3930923      0.2261449      1.2500000      0.1863022
 120.5183260      0.4005676      0.2306678      1.2500000      0.1908347
 120.3167123      0.4081676      0.2352811      1.2500000      0.1905959
 120.1070135      0.4158932      0.2399867      1.2500000      0.1907336
 119.8889165      0.4237451      0.2447865      1.2500000      0.1849902
 119.6620984      0.4317241      0.2496822      1.2500000      0.1839665
 119.4262253      0.4398308      0.2546759      1.2500000      0.1817407
 119.1809528      0.4480656      0.2597694      1.2500000      0.1794939
 118.9259259      0.4564288      0.2649648      1.2500000      0.1712791
 118.6607790      0.4649206      0.2702641      1.2500000      0.1747582
 118.3851359      0.4735412      0.2756693      1.2500000      0.1637480
 118.0986099      0.4822903      0.2811827      1.2500000      0.1597950
 117.8008041      0.4911678      0.2868064      1.2500000      0.1575610
 117.4913114      0.5001731      0.2925425      1.2500000      0.1509329
 117.1697154      0.5093056      0.2983934      1.2500000      0.1502737
 116.8355902      0.5185643      0.3043612      1.2500000      0.1521107
 116.4885014      0.5279483      0.3104484      1.2500000      0.1472917
 116.1280068      0.5374560      0.3166574      1.2500000      0.1532101
 115.7536569      0.5470859      0.3229906      1.2500000      0.1514844
 115.3649961      0.5568361      0.3294504      1.2500000      0.1538364
 114.9615638      0.5667043      0.3360394      1.2500000      0.1688600
 114.5428958      0.5766881      0.3427602      1.2500000      0.1526796
 114.1085253      0.5867847      0.3496154      1.2500000      0.1462183
 113.6579854      0.5969907      0.3566077      1.2500000      0.1573556
 113.1908103      0.6073027      0.3637398      1.2500000      0.1601536
 112.7065376      0.6177168      0.3710146      1.2500000      0.1589224
 112.2047110      0.6282286      0.3784349      1.2500000      0.1641556
 111.6848822      0.6388334      0.3860036      1.2500000      0.1802812
 111.1466146      0.6495261      0.3937237      1.2500000      0.1942052
 110.5894856      0.6603011      0.4015982      1.2500000      0.2186924
 110.0130901      0.6711524      0.4096301      1.2500000      0.2208457
 109.4170445      0.6820735      0.4178227      1.2500000      0.2175673
 108.8009897      0.6930575      0.4261792      1.2500000      0.2675879
 108.1645959      0.7040972      0.4347028      1.2500000      0.2483840
 107.5075657      0.7151846      0.4433968      1.2500000      0.2344275
 106.8296392      0.7263116      0.4522648      1.2500000      0.2161529
 106.1305980      0.7374695      0.4613101      1.2500000      0.2125244
 105.4102693      0.7486493      0.4705363      1.2500000      0.1986774
 104.6685305      0.7598416      0.4799470      1.2500000      0.2149633
 103.9053135      0.7710366      0.4895459      1.2500000      0.1669447
 103.1206082      0.7822241      0.4993368      1.2500000      0.1758634
 102.3144670      0.7933938      0.5093236      1.2500000      0.1700740
 101.4870076      0.8045350      0.5195101      1.2500000      0.1319982
 100.6384164      0.8156369      0.5299003      1.2500000      0.1161763
  99.7689507      0.8266887      0.5404983      1.2500000      0.1472466
  98.8789408      0.8376791      0.5513082      1.2500000      0.1021226
  97.9687911      0.8485973      0.5623344      1.2500000      0.1498542
  97.0389809      0.8594322      0.5735811      1.2500000      0.1893824
  96.0900635      0.8701729      0.5850527      1.2500000      0.1875176
  95.1226657      0.8808087      0.5967538      1.2500000      0.1662712
  94.1374853      0.8913291      0.6086888      1.2500000      0.2707698
  93.1352887      0.9017241      0.6208626      1.2500000      0.1898001
  92.1169073      0.9119839      0.6332799      1.2500000      0.1698858
  91.0832327      0.9220992      0.6459455      1.2500000      0.2114448
  90.0352120      0.9320612      0.6588644      1.2500000      0.1384526
  88.9738419      0.9418616      0.6720416      1.2500000      0.1229881
  87.9001623      0.9514927      0.6854825      1.2500000      0.1434635
  86.8152499      0.9609476      0.6991921      1.2500000      0.1896681
  85.7202110      0.9702198      0.7131760      1.2500000      0.4006471
  84.6161743      0.9793036      0.7274395      1.2500000      0.2252867
  83.5042835      0.9881942      0.7419883      1.2500000      0.2319648
  82.3856905      0.9968871      0.7568281      1.2500000      0.3826022
  81.2615479      1.0053788      0.7719646      1.2500000      0.2809391
  80.1330025      1.0136665      0.7874039      1.2500000      0.3211965
  79.0011889      1.0217478      0.8031520      1.2500000      0.2169351
  77.8672232      1.0296214      0.8192150      1.2500000      0.0810570
  76.7321980      1.0372862      0.8355993      1.2500000      0.0132351
  75.5971773      1.0447420      0.8523113      1.2500000      0.0007675
  74.4631918      1.0519892      0.8693575      1.2500000      0.0073959
  73.3312359      1.0590284      0.8867447      1.2500000      0.0078104
  72.2022636      1.0658610      0.9044796      1.2500000      0.0054985
  71.0771868      1.0724889      0.9225692      1.2500000      0.0022300
  69.9568728      1.0789141      0.9410206      1.2500000      0.0002913
 131.3700498      0.2187110      0.1200000      1.3500000      0.1612764
 131.3204959      0.2230416      0.1224000      1.3500000      0.1632960
 131.2689216      0.2274561      0.1248480      1.3500000      0.1721041
 131.2152439      0.2319559      0.1273450      1.3500000      0.1703674
 131.1593764      0.2365427      0.1298919      1.3500000      0.1720457
 131.1012290      0.2412180      0.1324897      1.3500000      0.1730329
 131.0407078      0.2459832      0.1351395      1.3500000      0.1727950
 130.9777153      0.2508400      0.1378423      1.3500000      0.1769843
 130.9121497      0.2557900      0.1405991      1.3500000      0.1748365
 130.8439049      0.2608348      0.1434111      1.3500000      0.1784142
 130.7728705      0.2659761      0.1462793      1.3500000      0.1759293
 130.6989315      0.2712153      0.1492049      1.3500000      0.1681904
 130.6219680      0.2765543      0.1521890      1.3500000      0.1717772
 130.5418554      0.2819947      0.1552328      1.3500000      0.1719367
 130.4584635      0.2875381      0.1583375      1.3500000      0.1711669
 130.3716571      0.2931862      0.1615042      1.3500000      0.1708242
 130.2812949      0.2989408      0.1647343      1.3500000      0.1699526
 130.1872301      0.3048036      0.1680290      1.3500000      0.1708589
 130.0893096      0.3107762      0.1713895      1.3500000      0.1711470
 129.9873741      0.3168604      0.1748173      1.3500000      0.1734193
 129.8812575      0.3230578      0.1783137      1.3500000      0.1655124
 129.7707870      0.3293703      0.1818800      1.3500000      0.1642502
 129.6557825      0.3357995      0.1855176      1.3500000      0.1649483
 129.5360566      0.3423471      0.1892279      1.3500000      0.1652502
 129.4114139      0.3490148      0.1930125      1.3500000      0.1634735
 129.2816512      0.3558044      0.1968727      1.3500000      0.1616744
 129.1465570      0.3627175      0.2008102      1.3500000      0.1636933
 129.0059110      0.3697556      0.2048264      1.3500000      0.1626222
 128.8594841      0.3769206      0.2089229      1.3500000      0.1667674
 128.7070376      0.3842140      0.2131014      1.3500000      0.1664478
 128.5483235      0.3916373      0.2173634      1.3500000      0.1673198
 128.3830836      0.3991920      0.2217107      1.3500000      0.1679419
 128.2110495      0.4068798      0.2261449      1.3500000      0.1719645
 128.0319422      0.4147020      0.2306678      1.3500000      0.1698637
 127.8454716      0.4226600      0.2352811      1.3500000      0.1714343
 127.6513364      0.4307551      0.2399867      1.3500000      0.1751000
 127.4492236      0.4389887      0.2447865      1.3500000      0.1718957
 127.2388082      0.4473618      0.2496822      1.3500000      0.1723524
 127.0197530      0.4558755      0.2546759      1.3500000      0.1732154
 126.7917083      0.4645309      0.2597694      1.3500000      0.1759613
 126.5543114      0.4733289      0.2649648      1.3500000      0.1717730
 126.3071868      0.4822702      0.2702641      1.3500000      0.1807452
 126.0499455      0.4913554      0.2756693      1.3500000      0.1743879
 125.7821854      0.5005851      0.2811827      1.3500000      0.1771139
 125.5034904      0.5099596      0.2868064      1.3500000      0.1775376
 125.2134312      0.5194790      0.2925425      1.3500000      0.1729514
 124.9115648      0.5291435      0.2983934      1.3500000      0.1763076
 124.5974347      0.5389526      0.3043612      1.3500000      0.1779085
 124.2705711      0.5489062      0.3104484      1.3500000      0.1748344
 123.9304913      0.5590034      0.3166574      1.3500000      0.1768988
 123.5766997      0.5692433      0.3229906      1.3500000      0.1784642
 123.2086888      0.5796249      0.3294504      1.3500000      0.1771204
 122.8259398      0.5901465      0.3360394      1.3500000      0.1969498
 122.4279234      0.6008065      0.3427602      1.3500000      0.1788981
 122.0141005      0.6116027      0.3496154      1.3500000      0.1709755
 121.5839241      0.6225326      0.3566077      1.3500000      0.1873505
 121.1368405      0.6335934      0.3637398      1.3500000      0.1895196
 120.6722909      0.6447818      0.3710146      1.3500000      0.1888471
 120.1897135      0.6560941      0.3784349      1.3500000      0.1801045
 119.6885461      0.6675263      0.3860036      1.3500000      0.1784390
 119.1682282      0.6790736      0.3937237      1.3500000      0.1685422
 118.6282045      0.6907311      0.4015982      1.3500000      0.1691576
 118.0679278      0.7024931      0.4096301      1.3500000      0.1465182
 117.4868628      0.7143535      0.4178227      1.3500000      0.1340198
 116.8844901      0.7263057      0.4261792      1.3500000      0.1610475
 116.2603106      0.7383424      0.4347028      1.3500000      0.1449459
 115.6138502      0.7504558      0.4433968      1.3500000      0.1381697
 114.9446648      0.7626377      0.4522648      1.3500000      0.1338659
 114.2523456      0.7748790      0.4613101      1.3500000      0.1410586
 113.5365250      0.7871703      0.4705363      1.3500000      0.1442873
 112.7968819      0.7995016      0.4799470      1.3500000      0.1799165
 112.0331480      0.8118623      0.4895459      1.3500000      0.1706178
 111.2451139      0.8242412      0.4993368      1.3500000      0.2254616
 110.4326347      0.8366268      0.5093236      1.3500000      0.2589676
 109.5956358      0.8490072      0.5195101      1.3500000      0.2307052
 108.7341189      0.8613698      0.5299003      1.3500000      0.2284947
 107.8481667      0.8737019      0.5404983      1.3500000      0.3067170
 106.9379474      0.8859905      0.5513082      1.3500000      0.2327516
 106.0037190      0.8982224      0.5623344      1.3500000      0.2809898
 105.0458322      0.9103842      0.5735811      1.3500000      0.2629155
 104.0647327      0.9224624      0.5850527      1.3500000      0.2064605
 103.0609620      0.9344438      0.5967538      1.3500000      0.1547616
 102.0351577      0.9463151      0.6086888      1.3500000      0.2046800
 100.9880524      0.9580633      0.6208626      1.3500000      0.1441749
  99.9204709      0.9696758      0.6332799      1.3500000      0.1240811
  98.8333267      0.9811402      0.6459455      1.3500000      0.1596016
  97.7276172      0.9924448      0.6588644      1.3500000      0.1501056
  96.6044175      1.0035784      0.6720416      1.3500000      0.1665784
  95.4648734      1.0145305      0.6854825      1.3500000      0.1588083
  94.3101933      1.0252914      0.6991921      1.3500000      0.1256739
  93.1416394      1.0358519      0.7131760      1.3500000      0.1197700
  91.9605187      1.0462041      0.7274395      1.3500000      0.0272614
  90.7681727      1.0563405      0.7419883      1.3500000      0.0070878
  89.5659677      1.0662548      0.7568281      1.3500000      0.0000219
  88.3552851      1.0759416      0.7719646      1.3500000      0.0000254
 137.9979769      0.2240578      0.1200000      1.4500000      0.1693548
 137.9536832      0.2285050      0.1224000      1.4500000      0.1665653
 137.9075744      0.2330390      0.1248480      1.4500000      0.1739213
 137.8595752      0.2376615      0.1273450      1.4500000      0.1753606
 137.8096070      0.2423740      0.1298919      1.4500000      0.1799991
 137.7575879      0.2471781      0.1324897      1.4500000      0.1726643
 137.7034326      0.2520756      0.1351395      1.4500000      0.1763899
 137.6470520      0.2570682      0.1378423      1.4500000      0.1776697
 137.5883533      0.2621575      0.1405991      1.4500000      0.1770071
 137.5272397      0.2673453      0.1434111      1.4500000      0.1794478
 137.4636103      0.2726333      0.1462793      1.4500000      0.1792146
 137.3973599      0.2780233      0.1492049      1.4500000      0.1769826
 137.3283785      0.2835172      0.1521890      1.4500000      0.1809514
 137.2565519      0.2891167      0.1552328      1.4500000      0.1777370
 137.1817605      0.2948236      0.1583375      1.4500000      0.1855809
 137.1038797      0.3006399      0.1615042      1.4500000      0.1804720
 137.0227796      0.3065673      0.1647343      1.4500000      0.1867790
 136.9383247      0.3126079      0.1680290      1.4500000      0.1808463
 136.8503735      0.3187634      0.1713895      1.4500000      0.1864784
 136.7587784      0.3250358      0.1748173      1.4500000      0.1821343
 136.6633856      0.3314270      0.1783137      1.4500000      0.1853356
 136.5640343      0.3379390      0.1818800      1.4500000      0.1861455
 136.4605570      0.3445736      0.1855176      1.4500000      0.1837217
 136.3527788      0.3513329      0.1892279      1.4500000      0.1832396
 136.2405172      0.3582188      0.1930125      1.4500000      0.1846092
 136.1235819      0.3652333      0.1968727      1.4500000      0.1806286
 136.0017742      0.3723782      0.2008102      1.4500000      0.1852115
 135.8748867      0.3796556      0.2048264      1.4500000      0.1863632
 135.7427031      0.3870675      0.2089229      1.4500000      0.1878352
 135.6049978      0.3946156      0.2131014      1.4500000      0.1878453
 135.4615353      0.4023020      0.2173634      1.4500000      0.1845679
 135.3120700      0.4101285      0.2217107      1.4500000      0.1836594
 135.1563455      0.4180970      0.2261449      1.4500000      0.1826299
 134.9940946      0.4262094      0.2306678      1.4500000      0.1804270
 134.8250385      0.4344674      0.2352811      1.4500000      0.1777050
 134.6488865      0.4428728      0.2399867      1.4500000      0.1791169
 134.4653355      0.4514274      0.2447865      1.4500000      0.1784996
 134.2740695      0.4601327      0.2496822      1.4500000      0.1734041
 134.0747594      0.4689905      0.2546759      1.4500000      0.1719300
 133.8670619      0.4780021      0.2597694      1.4500000      0.1705013
 133.6506198      0.4871691      0.2649648      1.4500000      0.1626377
 133.4250612      0.4964928      0.2702641      1.4500000      0.1665868
 133.1899987      0.5059745      0.2756693      1.4500000      0.1564720
 132.9450296      0.5156153      0.2811827      1.4500000      0.1543940
 132.6897350      0.5254161      0.2868064      1.4500000      0.1524331
 132.4236799      0.5353780      0.2925425      1.4500000      0.1449803
 132.1464123      0.5455015      0.2983934      1.4500000      0.1432117
 131.8574631      0.5557872      0.3043612      1.4500000      0.1398842
 131.5563462      0.5662355      0.3104484      1.4500000      0.1415698
 131.2425580      0.5768466      0.3166574      1.4500000      0.1418985
 130.9155772      0.5876203      0.3229906      1.4500000      0.1418320
 130.5748651      0.5985563      0.3294504      1.4500000      0.1469924
 130.2198658      0.6096541      0.3360394      1.4500000      0.1626945
 129.8500061      0.6209127      0.3427602      1.4500000      0.1476557
 129.4646963      0.6323309      0.3496154      1.4500000      0.1500068
 129.0633306      0.6439073      0.3566077      1.4500000      0.1642770
 128.6452881      0.6556398      0.3637398      1.4500000      0.1705377
 128.2099338      0.6675263      0.3710146      1.4500000      0.1781178
 127.7566200      0.6795639      0.3784349      1.4500000      0.1805526
 127.2846877      0.6917495      0.3860036      1.4500000      0.1884466
 126.7934690      0.7040793      0.3937237      1.4500000      0.1934647
 126.2822893      0.7165493      0.4015982      1.4500000      0.2055456
 125.7504697      0.7291546      0.4096301      1.4500000      0.1974240
 125.1973310      0.7418899      0.4178227      1.4500000      0.1865775
 124.6221964      0.7547494      0.4261792      1.4500000      0.2245866
 124.0243965      0.7677264      0.4347028      1.4500000      0.2043901
 123.4032734      0.7808137      0.4433968      1.4500000      0.1864758
 122.7581863      0.7940035      0.4522648      1.4500000      0.1776837
 122.0885170      0.8072870      0.4613101      1.4500000      0.1838422
 121.3936765      0.8206550      0.4705363      1.4500000      0.1842600
 120.6731111      0.8340974      0.4799470      1.4500000      0.2254748
 119.9263106      0.8476034      0.4895459      1.4500000      0.1822911
 119.1528152      0.8611615      0.4993368      1.4500000      0.2013709
 118.3522240      0.8747595      0.5093236      1.4500000      0.1809867
 117.5242028      0.8883844      0.5195101      1.4500000      0.1385441
 116.6684928      0.9020227      0.5299003      1.4500000      0.1305298
 115.7849187      0.9156602      0.5404983      1.4500000      0.1870674
 114.8733967      0.9292822      0.5513082      1.4500000      0.1465314
 113.9339425      0.9428733      0.5623344      1.4500000      0.2036933
 112.9666776      0.9564181      0.5735811      1.4500000      0.2384675
 111.9718362      0.9699005      0.5850527      1.4500000      0.2482328
 110.9497699      0.9833044      0.5967538      1.4500000      0.2475933
 109.9009517      0.9966135      0.6086888      1.4500000      0.3662148
 108.8259781      1.0098116      0.6208626      1.4500000      0.2361893
 107.7255702      1.0228825      0.6332799      1.4500000      0.1572056
 106.6005723      1.0358105      0.6459455      1.4500000      0.0874899
 105.4519492      1.0485802      0.6588644      1.4500000      0.0282977
 104.2807818      1.0611765      0.6720416      1.4500000      0.0020636
 103.0882600      1.0735854      0.6854825      1.4500000      0.0000504
 144.0311337      0.2282737      0.1200000      1.5500000      0.1663821
 143.9921785      0.2328135      0.1224000      1.5500000      0.1661387
 143.9516205      0.2374424      0.1248480      1.5500000      0.1684382
 143.9093926      0.2421622      0.1273450      1.5500000      0.1741333
 143.8654246      0.2469746      0.1298919      1.5500000      0.1728635
 143.8196437      0.2518812      0.1324897      1.5500000      0.1793887
 143.7719736      0.2568839      0.1351395      1.5500000      0.1721715
 143.7223348      0.2619844      0.1378423      1.5500000      0.1783499
 143.6706443      0.2671846      0.1405991      1.5500000      0.1752183
 143.6168156      0.2724862      0.1434111      1.5500000      0.1796480
 143.5607583      0.2778912      0.1462793      1.5500000      0.1841842
 143.5023779      0.2834015      0.1492049      1.5500000      0.1771456
 143.4415761      0.2890189      0.1521890      1.5500000      0.1794450
 143.3782499      0.2947454      0.1552328      1.5500000      0.1745233
 143.3122920      0.3005830      0.1583375      1.5500000      0.1733436
 143.2435903      0.3065337      0.1615042      1.5500000      0.1765323
 143.1720276      0.3125994      0.1647343      1.5500000      0.1788270
 143.0974817      0.3187823      0.1680290      1.5500000      0.1769893
 143.0198246      0.3250843      0.1713895      1.5500000      0.1819905
 142.9389230      0.3315077      0.1748173      1.5500000      0.1756288
 142.8546373      0.3380544      0.1783137      1.5500000      0.1778061
 142.7668218      0.3447266      0.1818800      1.5500000      0.1761680
 142.6753241      0.3515264      0.1855176      1.5500000      0.1750124
 142.5799851      0.3584560      0.1892279      1.5500000      0.1726049
 142.4806384      0.3655177      0.1930125      1.5500000      0.1741804
 142.3771099      0.3727135      0.1968727      1.5500000      0.1745567
 142.2692178      0.3800456      0.2008102      1.5500000      0.1696213
 142.1567721      0.3875164      0.2048264      1.5500000      0.1758637
 142.0395738      0.3951279      0.2089229      1.5500000      0.1752001
 141.9174151      0.4028825      0.2131014      1.5500000      0.1750990
 141.7900786      0.4107823      0.2173634      1.5500000      0.1738197
 141.6573369      0.4188295      0.2217107      1.5500000      0.1721569
 141.5189522      0.4270264      0.2261449      1.5500000      0.1711497
 141.3746758      0.4353752      0.2306678      1.5500000      0.1755912
 141.2242475      0.4438780      0.2352811      1.5500000      0.1746744
 141.0673953      0.4525371      0.2399867      1.5500000      0.1747076
 140.9038345      0.4613545      0.2447865      1.5500000      0.1745687
 140.7332676      0.4703323      0.2496822      1.5500000      0.1738302
 140.5553832      0.4794727      0.2546759      1.5500000      0.1731935
 140.3698558      0.4887777      0.2597694      1.5500000      0.1756295
 140.1763450      0.4982492      0.2649648      1.5500000      0.1730489
 139.9744950      0.5078891      0.2702641      1.5500000      0.1831556
 139.7639336      0.5176993      0.2756693      1.5500000      0.1750621
 139.5442721      0.5276815      0.2811827      1.5500000      0.1784930
 139.3151043      0.5378375      0.2868064      1.5500000      0.1813706
 139.0760058      0.5481686      0.2925425      1.5500000      0.1810002
 138.8265334      0.5586765      0.2983934      1.5500000      0.1851069
 138.5662247      0.5693623      0.3043612      1.5500000      0.1883396
 138.2945971      0.5802273      0.3104484      1.5500000      0.1878891
 138.0111475      0.5912724      0.3166574      1.5500000      0.1879664
 137.7153517      0.6024984      0.3229906      1.5500000      0.1884260
 137.4066636      0.6139060      0.3294504      1.5500000      0.1860097
 137.0845152      0.6254954      0.3360394      1.5500000      0.2022572
 136.7483161      0.6372668      0.3427602      1.5500000      0.1828909
 136.3974531      0.6492201      0.3496154      1.5500000      0.1703681
 136.0312903      0.6613547      0.3566077      1.5500000      0.1783698
 135.6491691      0.6736699      0.3637398      1.5500000      0.1738701
 135.2504082      0.6861645      0.3710146      1.5500000      0.1650405
 134.8343045      0.6988370      0.3784349      1.5500000      0.1553545
 134.4001335      0.7116854      0.3860036      1.5500000      0.1487008
 133.9471503      0.7247072      0.3937237      1.5500000      0.1456943
 133.4745911      0.7378994      0.4015982      1.5500000      0.1484908
 132.9816748      0.7512586      0.4096301      1.5500000      0.1336911
 132.4676054      0.7647807      0.4178227      1.5500000      0.1204223
 131.9315742      0.7784610      0.4261792      1.5500000      0.1421541
 131.3727636      0.7922940      0.4347028      1.5500000      0.1351212
 130.7903504      0.8062737      0.4433968      1.5500000      0.1338828
 130.1835109      0.8203933      0.4522648      1.5500000      0.1341271
 129.5514254      0.8346451      0.4613101      1.5500000      0.1511114
 128.8932847      0.8490205      0.4705363      1.5500000      0.1676767
 128.2082964      0.8635104      0.4799470      1.5500000      0.2265940
 127.4956927      0.8781045      0.4895459      1.5500000      0.2067747
 126.7547389      0.8927916      0.4993368      1.5500000      0.2658519
 125.9847421      0.9075597      0.5093236      1.5500000      0.2806995
 125.1850613      0.9223957      0.5195101      1.5500000      0.2372072
 124.3551180      0.9372857      0.5299003      1.5500000      0.2257461
 123.4944071      0.9522148      0.5404983      1.5500000      0.3293015
 122.6025084      0.9671674      0.5513082      1.5500000      0.2485276
 121.6790985      0.9821267      0.5623344      1.5500000      0.3478747
 120.7239619      0.9970755      0.5735811      1.5500000      0.3153379
 119.7370027      1.0119956      0.5850527      1.5500000      0.1572846
 118.7182549      1.0268684      0.5967538      1.5500000      0.0388852
 117.6678922      1.0416748      0.6086888      1.5500000      0.0115384
 116.5862362      1.0563952      0.6208626      1.5500000      0.0078642
 115.4737631      1.0710100      0.6332799      1.5500000      0.0000312
 149.4676212      0.2315311      0.1200000      1.6500000      0.1398794
 149.4338745      0.2361427      0.1224000      1.6500000      0.1406639
 149.3987348      0.2408454      0.1248480      1.6500000      0.1564368
 149.3621434      0.2456408      0.1273450      1.6500000      0.1450360
 149.3240390      0.2505308      0.1298919      1.6500000      0.1544547
 149.2843576      0.2555171      0.1324897      1.6500000      0.1531178
 149.2430325      0.2606017      0.1351395      1.6500000      0.1608139
 149.1999939      0.2657862      0.1378423      1.6500000      0.1586979
 149.1551691      0.2710727      0.1405991      1.6500000      0.1612888
 149.1084820      0.2764631      0.1434111      1.6500000      0.1619019
 149.0598532      0.2819592      0.1462793      1.6500000      0.1599324
 149.0091997      0.2875632      0.1492049      1.6500000      0.1669325
 148.9564349      0.2932770      0.1521890      1.6500000      0.1625499
 148.9014682      0.2991026      0.1552328      1.6500000      0.1606488
 148.8442048      0.3050422      0.1583375      1.6500000      0.1644550
 148.7845459      0.3110979      0.1615042      1.6500000      0.1671922
 148.7223881      0.3172717      0.1647343      1.6500000      0.1590145
 148.6576232      0.3235659      0.1680290      1.6500000      0.1617590
 148.5901381      0.3299826      0.1713895      1.6500000      0.1647653
 148.5198145      0.3365241      0.1748173      1.6500000      0.1649649
 148.4465288      0.3431927      0.1783137      1.6500000      0.1651824
 148.3701515      0.3499905      0.1818800      1.6500000      0.1661207
 148.2905472      0.3569200      0.1855176      1.6500000      0.1632891
 148.2075741      0.3639835      0.1892279      1.6500000      0.1601131
 148.1210839      0.3711832      0.1930125      1.6500000      0.1634961
 148.0309214      0.3785217      0.1968727      1.6500000      0.1644946
 147.9369238      0.3860013      0.2008102      1.6500000      0.1613906
 147.8389210      0.3936244      0.2048264      1.6500000      0.1656033
 147.7367345      0.4013935      0.2089229      1.6500000      0.1675291
 147.6301776      0.4093111      0.2131014      1.6500000      0.1632356
 147.5190546      0.4173796      0.2173634      1.6500000      0.1645809
 147.4031602      0.4256016      0.2217107      1.6500000      0.1693853
 147.2822795      0.4339795      0.2261449      1.6500000      0.1677697
 147.1561873      0.4425158      0.2306678      1.6500000      0.1646707
 147.0246474      0.4512131      0.2352811      1.6500000      0.1672551
 146.8874119      0.4600739      0.2399867      1.6500000      0.1659888
 146.7442214      0.4691007      0.2447865      1.6500000      0.1668757
 146.5948034      0.4782960      0.2496822      1.6500000      0.1636759
 146.4388724      0.4876622      0.2546759      1.6500000      0.1650632
 146.2761286      0.4972020      0.2597694      1.6500000      0.1651802
 146.1062580      0.5069176      0.2649648      1.6500000      0.1559073
 145.9289307      0.5168115      0.2702641      1.6500000      0.1674281
 145.7438010      0.5268861      0.2756693      1.6500000      0.1636272
 145.5505061      0.5371437      0.2811827      1.6500000      0.1626242
 145.3486653      0.5475865      0.2868064      1.6500000      0.1633291
 145.1378795      0.5582168      0.2925425      1.6500000      0.1629887
 144.9177298      0.5690366      0.2983934      1.6500000      0.1633345
 144.6877772      0.5800480      0.3043612      1.6500000      0.1625367
 144.4475611      0.5912529      0.3104484      1.6500000      0.1635133
 144.1965989      0.6026531      0.3166574      1.6500000      0.1667904
 143.9343846      0.6142502      0.3229906      1.6500000      0.1666674
 143.6603882      0.6260457      0.3294504      1.6500000      0.1690039
 143.3740546      0.6380409      0.3360394      1.6500000      0.1877050
 143.0748030      0.6502370      0.3427602      1.6500000      0.1713520
 142.7620255      0.6626349      0.3496154      1.6500000      0.1673797
 142.4350868      0.6752351      0.3566077      1.6500000      0.1830176
 142.0933234      0.6880382      0.3637398      1.6500000      0.1853967
 141.7360426      0.7010441      0.3710146      1.6500000      0.1840677
 141.3625227      0.7142526      0.3784349      1.6500000      0.1866898
 140.9720119      0.7276631      0.3860036      1.6500000      0.1930791
 140.5637289      0.7412745      0.3937237      1.6500000      0.1968459
 140.1368624      0.7550852      0.4015982      1.6500000      0.2113371
 139.6905722      0.7690934      0.4096301      1.6500000      0.2028504
 139.2239892      0.7832964      0.4178227      1.6500000      0.1939204
 138.7362173      0.7976911      0.4261792      1.6500000      0.2386711
 138.2263347      0.8122738      0.4347028      1.6500000      0.2172659
 137.6933963      0.8270399      0.4433968      1.6500000      0.2012935
 137.1364366      0.8419843      0.4522648      1.6500000      0.1852085
 136.5544732      0.8571008      0.4613101      1.6500000      0.1825544
 135.9465116      0.8723826      0.4705363      1.6500000      0.1757354
 135.3115502      0.8878218      0.4799470      1.6500000      0.2028414
 134.6485868      0.9034096      0.4895459      1.6500000      0.1613957
 133.9566263      0.9191362      0.4993368      1.6500000      0.1828314
 133.2346889      0.9349906      0.5093236      1.6500000      0.1789566
 132.4818203      0.9509606      0.5195101      1.6500000      0.1457209
 131.6971025      0.9670331      0.5299003      1.6500000      0.1472787
 130.8796664      0.9831937      0.5404983      1.6500000      0.2355341
 130.0287045      0.9994266      0.5513082      1.6500000      0.1885164
 129.1434864      1.0157150      0.5623344      1.6500000      0.1701967
 128.2233732      1.0320408      0.5735811      1.6500000      0.0489493
 127.2678340      1.0483850      0.5850527      1.6500000      0.0155029
 126.2764622      1.0647271      0.5967538      1.6500000      0.0008197
 149.9934032      0.5997311      0.3104484      1.7500000      0.2331229
 149.7753225      0.6114126      0.3166574      1.7500000      0.2353053
 149.5472374      0.6233044      0.3229906      1.7500000      0.2380328
 149.3086532      0.6354088      0.3294504      1.7500000      0.2496653
 149.0590491      0.6477280      0.3360394      1.7500000      0.2795785
 148.7978768      0.6602641      0.3427602      1.7500000      0.2652610
 148.5245595      0.6730190      0.3496154      1.7500000      0.2637838
 148.2384904      0.6859943      0.3566077      1.7500000      0.2882322
 147.9390315      0.6991916      0.3637398      1.7500000      0.3076893
 147.6255120      0.7126121      0.3710146      1.7500000      0.3138696
 147.2972274      0.7262569      0.3784349      1.7500000      0.3247968
 146.9534380      0.7401266      0.3860036      1.7500000      0.3403803
 146.5933679      0.7542217      0.3937237      1.7500000      0.3555052
 146.2162038      0.7685422      0.4015982      1.7500000      0.3883379
 145.8210944      0.7830876      0.4096301      1.7500000      0.3832937
 145.4071496      0.7978570      0.4178227      1.7500000      0.3729531
 144.9734399      0.8128492      0.4261792      1.7500000      0.4677615
 144.5189969      0.8280621      0.4347028      1.7500000      0.4437828
 144.0428130      0.8434932      0.4433968      1.7500000      0.4284292
 143.5438428      0.8591392      0.4522648      1.7500000      0.4245145
 143.0210042      0.8749961      0.4613101      1.7500000      0.4549043
 142.4731806      0.8910591      0.4705363      1.7500000      0.4854134
 141.8992242      0.9073224      0.4799470      1.7500000      0.6188997
 141.2979594      0.9237793      0.4895459      1.7500000      0.5501986
 140.6681885      0.9404220      0.4993368      1.7500000      0.7098356
 140.0086973      0.9572417      0.5093236      1.7500000      0.7587730
 139.3182636      0.9742281      0.5195101      1.7500000      0.6674454
 138.5956658      0.9913699      0.5299003      1.7500000      0.6471276
 137.8396942      1.0086543      0.5404983      1.7500000      0.5430488
 137.0491635      1.0260670      0.5513082      1.7500000      0.1334360
 136.2229276      1.0435924      0.5623344      1.7500000      0.0337489
 135.3598958      1.0612132      0.5735811      1.7500000      0.0008423
 149.7881688      0.8561511      0.4433968      1.8500000      0.1657510
 149.3513297      0.8723692      0.4522648      1.8500000      0.1782170
 148.8925032      0.8888332      0.4613101      1.8500000      0.2093246
 148.4105287      0.9055405      0.4705363      1.8500000      0.2420592
 147.9041938      0.9224878      0.4799470      1.8500000      0.3169698
 147.3722354      0.9396709      0.4895459      1.8500000      0.3005356
 146.8133417      0.9570848      0.4993368      1.8500000      0.4116017
 146.2261545      0.9747230      0.5093236      1.8500000      0.4623558
 145.6092738      0.9925783      0.5195101      1.8500000      0.4067802
 144.9612627      1.0106419      0.5299003      1.8500000      0.2588749
 144.2806555      1.0289038      0.5404983      1.8500000      0.0720815
 143.5659660      1.0473525      0.5513082      1.8500000      0.0211581
