#Title: diamond cw0.533 4.22e12 60Hz [10x30]
#Inst: POWGEN.prm
#Binning: ddperp   0.0130986    0.1000000
#Bank: 1
#2theta   lambda   d-value   dp-value   counts
  49.4641113      0.1004101      0.1200000      0.4500000      0.1387408
  49.4158065      0.1023245      0.1224000      0.4500000      0.1558743
  49.3656818      0.1042718      0.1248480      0.4500000      0.1535908
  49.3136740      0.1062522      0.1273450      0.4500000      0.1499710
  49.2597180      0.1082661      0.1298919      0.4500000      0.1582587
  49.2037470      0.1103137      0.1324897      0.4500000      0.1496740
  49.1456926      0.1123955      0.1351395      0.4500000      0.1609147
  49.0854844      0.1145116      0.1378423      0.4500000      0.1632316
  49.0230502      0.1166625      0.1405991      0.4500000      0.1668664
  48.9583159      0.1188483      0.1434111      0.4500000      0.1753581
  48.8912059      0.1210693      0.1462793      0.4500000      0.1715119
  48.8216426      0.1233257      0.1492049      0.4500000      0.1700601
  48.7495465      0.1256179      0.1521890      0.4500000      0.1759614
  48.6748367      0.1279458      0.1552328      0.4500000      0.1827652
  48.5974302      0.1303098      0.1583375      0.4500000      0.1828262
  48.5172426      0.1327100      0.1615042      0.4500000      0.1846627
  48.4341877      0.1351464      0.1647343      0.4500000      0.1796263
  48.3481777      0.1376193      0.1680290      0.4500000      0.1859040
  48.2591233      0.1401286      0.1713895      0.4500000      0.1686987
  48.1669337      0.1426744      0.1748173      0.4500000      0.1724958
  48.0715168      0.1452567      0.1783137      0.4500000      0.1819373
  47.9727790      0.1478755      0.1818800      0.4500000      0.1774231
  47.8706256      0.1505308      0.1855176      0.4500000      0.1789364
  47.7649609      0.1532224      0.1892279      0.4500000      0.1708156
  47.6556881      0.1559502      0.1930125      0.4500000      0.1829843
  47.5427095      0.1587140      0.1968727      0.4500000      0.1719719
  47.4259267      0.1615136      0.2008102      0.4500000      0.1721806
  47.3052410      0.1643488      0.2048264      0.4500000      0.1774341
  47.1805530      0.1672192      0.2089229      0.4500000      0.1707178
  47.0517634      0.1701245      0.2131014      0.4500000      0.1622858
  46.9187726      0.1730643      0.2173634      0.4500000      0.1699310
  46.7814816      0.1760381      0.2217107      0.4500000      0.1729440
  46.6397915      0.1790454      0.2261449      0.4500000      0.1743744
  46.4936045      0.1820857      0.2306678      0.4500000      0.1707580
  46.3428233      0.1851584      0.2352811      0.4500000      0.1719209
  46.1873522      0.1882627      0.2399867      0.4500000      0.1727577
  46.0270970      0.1913980      0.2447865      0.4500000      0.1692321
  45.8619653      0.1945634      0.2496822      0.4500000      0.1712560
  45.6918666      0.1977581      0.2546759      0.4500000      0.1637631
  45.5167134      0.2009812      0.2597694      0.4500000      0.1666163
  45.3364206      0.2042317      0.2649648      0.4500000      0.1631746
  45.1509064      0.2075086      0.2702641      0.4500000      0.1695709
  44.9600928      0.2108108      0.2756693      0.4500000      0.1628162
  44.7639055      0.2141370      0.2811827      0.4500000      0.1709830
  44.5622745      0.2174862      0.2868064      0.4500000      0.1633711
  44.3551347      0.2208569      0.2925425      0.4500000      0.1670684
  44.1424260      0.2242478      0.2983934      0.4500000      0.1724092
  43.9240938      0.2276575      0.3043612      0.4500000      0.1505105
  43.7000896      0.2310846      0.3104484      0.4500000      0.1454458
  43.4703709      0.2345274      0.3166574      0.4500000      0.1534541
  43.2349023      0.2379844      0.3229906      0.4500000      0.1475882
  42.9936552      0.2414540      0.3294504      0.4500000      0.1371851
  42.7466086      0.2449344      0.3360394      0.4500000      0.1491234
  42.4937493      0.2484238      0.3427602      0.4500000      0.1372491
  42.2350724      0.2519205      0.3496154      0.4500000      0.1335425
  41.9705815      0.2554226      0.3566077      0.4500000      0.1569143
  41.7002889      0.2589282      0.3637398      0.4500000      0.1565267
  41.4242163      0.2624354      0.3710146      0.4500000      0.1620917
  41.1423944      0.2659421      0.3784349      0.4500000      0.1638936
  40.8548639      0.2694466      0.3860036      0.4500000      0.1670409
  40.5616749      0.2729466      0.3937237      0.4500000      0.1710938
  40.2628879      0.2764401      0.4015982      0.4500000      0.1689929
  39.9585731      0.2799252      0.4096301      0.4500000      0.1657796
  39.6488109      0.2833997      0.4178227      0.4500000      0.1507905
  39.3336920      0.2868616      0.4261792      0.4500000      0.1837593
  39.0133172      0.2903088      0.4347028      0.4500000      0.1707406
  38.6877972      0.2937392      0.4433968      0.4500000      0.1455261
  38.3572530      0.2971509      0.4522648      0.4500000      0.1414891
  38.0218151      0.3005418      0.4613101      0.4500000      0.1388054
  37.6816237      0.3039099      0.4705363      0.4500000      0.1497479
  37.3368285      0.3072532      0.4799470      0.4500000      0.1641405
  36.9875880      0.3105698      0.4895459      0.4500000      0.1480685
  36.6340694      0.3138579      0.4993368      0.4500000      0.1732584
  36.2764485      0.3171155      0.5093236      0.4500000      0.1754476
  35.9149085      0.3203410      0.5195101      0.4500000      0.1437047
  35.5496404      0.3235326      0.5299003      0.4500000      0.1268184
  35.1808418      0.3266885      0.5404983      0.4500000      0.1665130
  34.8087166      0.3298073      0.5513082      0.4500000      0.1286084
  34.4334747      0.3328874      0.5623344      0.4500000      0.1532703
  34.0553308      0.3359274      0.5735811      0.4500000      0.1626695
  33.6745045      0.3389259      0.5850527      0.4500000      0.1405176
  33.2912188      0.3418816      0.5967538      0.4500000      0.1144669
  32.9057004      0.3447933      0.6086888      0.4500000      0.1528760
  32.5181783      0.3476598      0.6208626      0.4500000      0.1325412
  32.1288835      0.3504803      0.6332799      0.4500000      0.1167997
  31.7380482      0.3532537      0.6459455      0.4500000      0.1449789
  31.3459052      0.3559791      0.6588644      0.4500000      0.1154942
  30.9526872      0.3586558      0.6720416      0.4500000      0.1160941
  30.5586263      0.3612832      0.6854825      0.4500000      0.1273924
  30.1639532      0.3638607      0.6991921      0.4500000      0.1441376
  29.7688967      0.3663877      0.7131760      0.4500000      0.2327425
  29.3736833      0.3688639      0.7274395      0.4500000      0.1309422
  28.9785362      0.3712889      0.7419883      0.4500000      0.1044417
  28.5836752      0.3736626      0.7568281      0.4500000      0.1499363
  28.1893162      0.3759847      0.7719646      0.4500000      0.1137276
  27.7956703      0.3782552      0.7874039      0.4500000      0.1439562
  27.4029440      0.3804741      0.8031520      0.4500000      0.1318000
  27.0113384      0.3826415      0.8192150      0.4500000      0.0994740
  26.6210489      0.3847575      0.8355993      0.4500000      0.0745823
  26.2322653      0.3868224      0.8523113      0.4500000      0.0669002
  25.8451708      0.3888364      0.8693575      0.4500000      0.0683335
  25.4599422      0.3907999      0.8867447      0.4500000      0.0644764
  25.0767500      0.3927132      0.9044796      0.4500000      0.0798477
  24.6957574      0.3945769      0.9225692      0.4500000      0.0489932
  24.3171210      0.3963914      0.9410206      0.4500000      0.0335532
  23.9409901      0.3981573      0.9598410      0.4500000      0.0310168
  23.5675071      0.3998752      0.9790378      0.4500000      0.0291417
  23.1968070      0.4015458      0.9986185      0.4500000      0.0095075
  22.8290177      0.4031696      1.0185909      0.4500000      0.0000643
  60.0397429      0.1200721      0.1200000      0.5500000      0.1692623
  59.9844396      0.1223712      0.1224000      0.5500000      0.1685573
  59.9270340      0.1247103      0.1248480      0.5500000      0.1860702
  59.8674516      0.1270897      0.1273450      0.5500000      0.1855687
  59.8056159      0.1295100      0.1298919      0.5500000      0.1895341
  59.7414480      0.1319716      0.1324897      0.5500000      0.1935833
  59.6748667      0.1344748      0.1351395      0.5500000      0.2042461
  59.6057887      0.1370201      0.1378423      0.5500000      0.2029098
  59.5341282      0.1396079      0.1405991      0.5500000      0.1929938
  59.4597973      0.1422385      0.1434111      0.5500000      0.2087151
  59.3827058      0.1449124      0.1462793      0.5500000      0.1997453
  59.3027609      0.1476297      0.1492049      0.5500000      0.1989792
  59.2198678      0.1503909      0.1521890      0.5500000      0.2014956
  59.1339293      0.1531963      0.1552328      0.5500000      0.2009336
  59.0448459      0.1560460      0.1583375      0.5500000      0.2027661
  58.9525159      0.1589404      0.1615042      0.5500000      0.2070431
  58.8568352      0.1618797      0.1647343      0.5500000      0.2090352
  58.7576978      0.1648640      0.1680290      0.5500000      0.1948647
  58.6549953      0.1678935      0.1713895      0.5500000      0.1945827
  58.5486173      0.1709683      0.1748173      0.5500000      0.1978021
  58.4384514      0.1740886      0.1783137      0.5500000      0.1999968
  58.3243834      0.1772542      0.1818800      0.5500000      0.2009340
  58.2062972      0.1804653      0.1855176      0.5500000      0.1944374
  58.0840748      0.1837218      0.1892279      0.5500000      0.1919585
  57.9575969      0.1870237      0.1930125      0.5500000      0.1873527
  57.8267425      0.1903707      0.1968727      0.5500000      0.1896468
  57.6913895      0.1937627      0.2008102      0.5500000      0.1916962
  57.5514145      0.1971995      0.2048264      0.5500000      0.1927085
  57.4066933      0.2006808      0.2089229      0.5500000      0.2017543
  57.2571008      0.2042062      0.2131014      0.5500000      0.2014680
  57.1025115      0.2077754      0.2173634      0.5500000      0.1974423
  56.9427996      0.2113878      0.2217107      0.5500000      0.2021228
  56.7778392      0.2150430      0.2261449      0.5500000      0.1951769
  56.6075049      0.2187403      0.2306678      0.5500000      0.1919293
  56.4316715      0.2224792      0.2352811      0.5500000      0.1948267
  56.2502151      0.2262587      0.2399867      0.5500000      0.1949836
  56.0630126      0.2300782      0.2447865      0.5500000      0.1912758
  55.8699430      0.2339368      0.2496822      0.5500000      0.1957493
  55.6708868      0.2378335      0.2546759      0.5500000      0.1877585
  55.4657272      0.2417673      0.2597694      0.5500000      0.1952836
  55.2543502      0.2457370      0.2649648      0.5500000      0.1943304
  55.0366449      0.2497414      0.2702641      0.5500000      0.1981942
  54.8125043      0.2537793      0.2756693      0.5500000      0.1895667
  54.5818254      0.2578494      0.2811827      0.5500000      0.1923510
  54.3445101      0.2619501      0.2868064      0.5500000      0.1942667
  54.1004654      0.2660800      0.2925425      0.5500000      0.1935836
  53.8496041      0.2702374      0.2983934      0.5500000      0.1969641
  53.5918452      0.2744206      0.3043612      0.5500000      0.2133089
  53.3271145      0.2786279      0.3104484      0.5500000      0.2113695
  53.0553453      0.2828574      0.3166574      0.5500000      0.2128922
  52.7764784      0.2871072      0.3229906      0.5500000      0.2130056
  52.4904635      0.2913752      0.3294504      0.5500000      0.2172442
  52.1972589      0.2956593      0.3360394      0.5500000      0.2361505
  51.8968325      0.2999575      0.3427602      0.5500000      0.2145833
  51.5891623      0.3042674      0.3496154      0.5500000      0.2025277
  51.2742366      0.3085868      0.3566077      0.5500000      0.2106602
  50.9520547      0.3129133      0.3637398      0.5500000      0.2033987
  50.6226273      0.3172445      0.3710146      0.5500000      0.2012585
  50.2859770      0.3215779      0.3784349      0.5500000      0.1983422
  49.9421383      0.3259110      0.3860036      0.5500000      0.1988615
  49.5911586      0.3302413      0.3937237      0.5500000      0.2007517
  49.2330976      0.3345661      0.4015982      0.5500000      0.2122797
  48.8680284      0.3388829      0.4096301      0.5500000      0.1936861
  48.4960370      0.3431890      0.4178227      0.5500000      0.1843444
  48.1172230      0.3474818      0.4261792      0.5500000      0.2192890
  47.7316990      0.3517585      0.4347028      0.5500000      0.1995946
  47.3395913      0.3560166      0.4433968      0.5500000      0.1763810
  46.9410393      0.3602535      0.4522648      0.5500000      0.1611838
  46.5361957      0.3644664      0.4613101      0.5500000      0.1596028
  46.1252258      0.3686528      0.4705363      0.5500000      0.1635599
  45.7083081      0.3728101      0.4799470      0.5500000      0.1837846
  45.2856330      0.3769358      0.4895459      0.5500000      0.1494547
  44.8574029      0.3810274      0.4993368      0.5500000      0.1741679
  44.4238319      0.3850826      0.5093236      0.5500000      0.1722665
  43.9851446      0.3890989      0.5195101      0.5500000      0.1305964
  43.5415762      0.3930741      0.5299003      0.5500000      0.1144515
  43.0933715      0.3970059      0.5404983      0.5500000      0.1638172
  42.6407841      0.4008924      0.5513082      0.5500000      0.1344524
  42.1840759      0.4047314      0.5623344      0.5500000      0.1848705
  41.7235163      0.4085209      0.5735811      0.5500000      0.2066249
  41.2593809      0.4122593      0.5850527      0.5500000      0.1758298
  40.7919515      0.4159448      0.5967538      0.5500000      0.1461929
  40.3215144      0.4195757      0.6086888      0.5500000      0.2017970
  39.8483600      0.4231506      0.6208626      0.5500000      0.1765702
  39.3727817      0.4266680      0.6332799      0.5500000      0.1355264
  38.8950749      0.4301268      0.6459455      0.5500000      0.1630814
  38.4155366      0.4335257      0.6588644      0.5500000      0.1339497
  37.9344638      0.4368638      0.6720416      0.5500000      0.1334273
  37.4521532      0.4401402      0.6854825      0.5500000      0.1474594
  36.9689001      0.4433539      0.6991921      0.5500000      0.1655599
  36.4849975      0.4465045      0.7131760      0.5500000      0.2695105
  36.0007357      0.4495912      0.7274395      0.5500000      0.1480435
  35.5164009      0.4526138      0.7419883      0.5500000      0.1179515
  35.0322753      0.4555717      0.7568281      0.5500000      0.1600672
  34.5486357      0.4584650      0.7719646      0.5500000      0.1283774
  34.0657533      0.4612933      0.7874039      0.5500000      0.1667651
  33.5838930      0.4640568      0.8031520      0.5500000      0.1526135
  33.1033129      0.4667554      0.8192150      0.5500000      0.1345007
  32.6242638      0.4693895      0.8355993      0.5500000      0.1211534
  32.1469888      0.4719591      0.8523113      0.5500000      0.1050962
  31.6717229      0.4744648      0.8693575      0.5500000      0.1183987
  31.1986928      0.4769070      0.8867447      0.5500000      0.1310532
  30.7281164      0.4792861      0.9044796      0.5500000      0.1691939
  30.2602027      0.4816027      0.9225692      0.5500000      0.1196761
  29.7951518      0.4838575      0.9410206      0.5500000      0.1086509
  29.3331545      0.4860513      0.9598410      0.5500000      0.1119422
  28.8743922      0.4881847      0.9790378      0.5500000      0.1993946
  28.4190372      0.4902587      0.9986185      0.5500000      0.1449227
  27.9672521      0.4922740      1.0185909      0.5500000      0.1026458
  27.5191906      0.4942316      1.0389627      0.5500000      0.1221491
  27.0749968      0.4961324      1.0597420      0.5500000      0.0790586
  26.6348057      0.4979775      1.0809368      0.5500000      0.0732496
  26.1987433      0.4997678      1.1025556      0.5500000      0.0651179
  25.7669266      0.5015043      1.1246067      0.5500000      0.0578695
  25.3394638      0.5031882      1.1470988      0.5500000      0.0509214
  24.9164548      0.5048206      1.1700408      0.5500000      0.0391937
  24.4979907      0.5064024      1.1934416      0.5500000      0.0389627
  24.0841548      0.5079349      1.2173104      0.5500000      0.0185280
  23.6750222      0.5094191      1.2416566      0.5500000      0.0092424
  23.2706604      0.5108562      1.2664898      0.5500000      0.0001006
  70.3595739      0.1382746      0.1200000      0.6500000      0.1903129
  70.2991715      0.1409346      0.1224000      0.6500000      0.1787961
  70.2364508      0.1436415      0.1248480      0.6500000      0.1875049
  70.1713276      0.1463959      0.1273450      0.6500000      0.1945307
  70.1037157      0.1491984      0.1298919      0.6500000      0.1825860
  70.0335259      0.1520494      0.1324897      0.6500000      0.1904284
  69.9606663      0.1549496      0.1351395      0.6500000      0.1830293
  69.8850424      0.1578995      0.1378423      0.6500000      0.1909489
  69.8065569      0.1608996      0.1405991      0.6500000      0.1825863
  69.7251095      0.1639504      0.1434111      0.6500000      0.1817944
  69.6405974      0.1670523      0.1462793      0.6500000      0.1810426
  69.5529147      0.1702058      0.1492049      0.6500000      0.1802976
  69.4619526      0.1734114      0.1521890      0.6500000      0.1737818
  69.3675996      0.1766695      0.1552328      0.6500000      0.1694101
  69.2697412      0.1799805      0.1583375      0.6500000      0.1756084
  69.1682600      0.1833446      0.1615042      0.6500000      0.1738383
  69.0630358      0.1867624      0.1647343      0.6500000      0.1760762
  68.9539454      0.1902340      0.1680290      0.6500000      0.1794067
  68.8408629      0.1937597      0.1713895      0.6500000      0.1833793
  68.7236596      0.1973398      0.1748173      0.6500000      0.1859001
  68.6022040      0.2009745      0.1783137      0.6500000      0.1904555
  68.4763621      0.2046638      0.1818800      0.6500000      0.1890375
  68.3459970      0.2084080      0.1855176      0.6500000      0.1868665
  68.2109697      0.2122071      0.1892279      0.6500000      0.1967270
  68.0711384      0.2160610      0.1930125      0.6500000      0.1933066
  67.9263595      0.2199698      0.1968727      0.6500000      0.1906519
  67.7764868      0.2239334      0.2008102      0.6500000      0.1925460
  67.6213725      0.2279515      0.2048264      0.6500000      0.1893538
  67.4608669      0.2320240      0.2089229      0.6500000      0.1970326
  67.2948188      0.2361506      0.2131014      0.6500000      0.1870358
  67.1230755      0.2403310      0.2173634      0.6500000      0.2012580
  66.9454833      0.2445647      0.2217107      0.6500000      0.1956662
  66.7618877      0.2488512      0.2261449      0.6500000      0.2020985
  66.5721338      0.2531900      0.2306678      0.6500000      0.2047748
  66.3760662      0.2575803      0.2352811      0.6500000      0.2154399
  66.1735300      0.2620216      0.2399867      0.6500000      0.2161501
  65.9643705      0.2665129      0.2447865      0.6500000      0.2120094
  65.7484342      0.2710533      0.2496822      0.6500000      0.2028784
  65.5255689      0.2756419      0.2546759      0.6500000      0.2029951
  65.2956242      0.2802774      0.2597694      0.6500000      0.2072656
  65.0584520      0.2849589      0.2649648      0.6500000      0.2032933
  64.8139074      0.2896848      0.2702641      0.6500000      0.2156590
  64.5618483      0.2944539      0.2756693      0.6500000      0.2076945
  64.3021373      0.2992647      0.2811827      0.6500000      0.2105152
  64.0346409      0.3041155      0.2868064      0.6500000      0.2127480
  63.7592314      0.3090046      0.2925425      0.6500000      0.2035779
  63.4757867      0.3139302      0.2983934      0.6500000      0.2048634
  63.1841911      0.3188905      0.3043612      0.6500000      0.2010187
  62.8843365      0.3238832      0.3104484      0.6500000      0.1968928
  62.5761225      0.3289064      0.3166574      0.6500000      0.1992562
  62.2594574      0.3339577      0.3229906      0.6500000      0.1960585
  61.9342588      0.3390349      0.3294504      0.6500000      0.1971734
  61.6004545      0.3441354      0.3360394      0.6500000      0.2221450
  61.2579832      0.3492568      0.3427602      0.6500000      0.1943917
  60.9067949      0.3543963      0.3496154      0.6500000      0.1826614
  60.5468520      0.3595512      0.3566077      0.6500000      0.1926121
  60.1781297      0.3647187      0.3637398      0.6500000      0.1989909
  59.8006170      0.3698960      0.3710146      0.6500000      0.1925392
  59.4143169      0.3750799      0.3784349      0.6500000      0.1888459
  59.0192472      0.3802674      0.3860036      0.6500000      0.1938873
  58.6154411      0.3854555      0.3937237      0.6500000      0.1933199
  58.2029474      0.3906408      0.4015982      0.6500000      0.2027973
  57.7818314      0.3958203      0.4096301      0.6500000      0.1922574
  57.3521749      0.4009906      0.4178227      0.6500000      0.1817891
  56.9140764      0.4061485      0.4261792      0.6500000      0.2190531
  56.4676519      0.4112905      0.4347028      0.6500000      0.2027964
  56.0130341      0.4164135      0.4433968      0.6500000      0.1816300
  55.5503733      0.4215139      0.4522648      0.6500000      0.1764507
  55.0798370      0.4265886      0.4613101      0.6500000      0.1767245
  54.6016096      0.4316342      0.4705363      0.6500000      0.1886387
  54.1158924      0.4366475      0.4799470      0.6500000      0.2406106
  53.6229032      0.4416252      0.4895459      0.6500000      0.2087179
  53.1228759      0.4465641      0.4993368      0.6500000      0.2458919
  52.6160598      0.4514612      0.5093236      0.6500000      0.2505647
  52.1027192      0.4563134      0.5195101      0.6500000      0.2030427
  51.5831325      0.4611177      0.5299003      0.6500000      0.1935742
  51.0575915      0.4658713      0.5404983      0.6500000      0.2516234
  50.5264005      0.4705715      0.5513082      0.6500000      0.1772835
  49.9898756      0.4752155      0.5623344      0.6500000      0.2230311
  49.4483431      0.4798009      0.5735811      0.6500000      0.2279155
  48.9021391      0.4843253      0.5850527      0.6500000      0.1877129
  48.3516078      0.4887864      0.5967538      0.6500000      0.1460534
  47.7971008      0.4931822      0.6086888      0.6500000      0.1994653
  47.2389756      0.4975105      0.6208626      0.6500000      0.1621370
  46.6775948      0.5017696      0.6332799      0.6500000      0.1241441
  46.1133243      0.5059578      0.6459455      0.6500000      0.1449671
  45.5465325      0.5100736      0.6588644      0.6500000      0.1116260
  44.9775892      0.5141155      0.6720416      0.6500000      0.0991951
  44.4068641      0.5180825      0.6854825      0.6500000      0.1065704
  43.8347256      0.5219734      0.6991921      0.6500000      0.1240820
  43.2615401      0.5257873      0.7131760      0.6500000      0.2434293
  42.6876706      0.5295235      0.7274395      0.6500000      0.1473542
  42.1134759      0.5331813      0.7419883      0.6500000      0.1255884
  41.5393092      0.5367603      0.7568281      0.6500000      0.1888080
  40.9655177      0.5402602      0.7719646      0.6500000      0.1538294
  40.3924415      0.5436808      0.7874039      0.6500000      0.2094690
  39.8204127      0.5470221      0.8031520      0.6500000      0.1911535
  39.2497552      0.5502841      0.8192150      0.6500000      0.1613016
  38.6807832      0.5534670      0.8355993      0.6500000      0.1223205
  38.1138015      0.5565712      0.8523113      0.6500000      0.1149743
  37.5491047      0.5595971      0.8693575      0.6500000      0.1227758
  36.9869762      0.5625453      0.8867447      0.6500000      0.1367421
  36.4276890      0.5654163      0.9044796      0.6500000      0.1788659
  35.8715042      0.5682110      0.9225692      0.6500000      0.1340982
  35.3186716      0.5709301      0.9410206      0.6500000      0.1167484
  34.7694293      0.5735745      0.9598410      0.6500000      0.1125378
  34.2240033      0.5761452      0.9790378      0.6500000      0.1979619
  33.6826078      0.5786432      0.9986185      0.6500000      0.1415266
  33.1454453      0.5810696      1.0185909      0.6500000      0.1206308
  32.6127060      0.5834256      1.0389627      0.6500000      0.1589875
  32.0845688      0.5857124      1.0597420      0.6500000      0.1111654
  31.5612005      0.5879311      1.0809368      0.6500000      0.1059255
  31.0427567      0.5900831      1.1025556      0.6500000      0.1090255
  30.5293816      0.5921697      1.1246067      0.6500000      0.1040329
  30.0212083      0.5941922      1.1470988      0.6500000      0.1058805
  29.5183593      0.5961519      1.1700408      0.6500000      0.1042448
  29.0209463      0.5980502      1.1934416      0.6500000      0.1389625
  28.5290709      0.5998886      1.2173104      0.6500000      0.0962414
  28.0428247      0.6016683      1.2416566      0.6500000      0.1013351
  27.5622897      0.6033908      1.2664898      0.6500000      0.0889302
  27.0875387      0.6050576      1.2918196      0.6500000      0.1982363
  26.6186354      0.6066699      1.3176560      0.6500000      0.1198469
  26.1556352      0.6082292      1.3440091      0.6500000      0.0618788
  25.6985849      0.6097369      1.3708893      0.6500000      0.2647357
  25.2475236      0.6111943      1.3983070      0.6500000      0.0387095
  24.8024828      0.6126028      1.4262732      0.6500000      0.0265602
  24.3634870      0.6139639      1.4547986      0.6500000      0.0173028
  23.9305535      0.6152787      1.4838946      0.6500000      0.0059202
  80.3733574      0.1548672      0.1200000      0.7500000      0.1948008
  80.3098177      0.1578608      0.1224000      0.7500000      0.1969587
  80.2438144      0.1609081      0.1248480      0.7500000      0.2036847
  80.1752564      0.1640097      0.1273450      0.7500000      0.2004820
  80.1040496      0.1671664      0.1298919      0.7500000      0.2032631
  80.0300970      0.1703788      0.1324897      0.7500000      0.1914765
  79.9532983      0.1736476      0.1351395      0.7500000      0.1943620
  79.8735501      0.1769735      0.1378423      0.7500000      0.1957106
  79.7907457      0.1803571      0.1405991      0.7500000      0.2019370
  79.7047752      0.1837991      0.1434111      0.7500000      0.2016696
  79.6155253      0.1873001      0.1462793      0.7500000      0.1897366
  79.5228792      0.1908607      0.1492049      0.7500000      0.2028641
  79.4267168      0.1944815      0.1521890      0.7500000      0.2042340
  79.3269144      0.1981630      0.1552328      0.7500000      0.2077054
  79.2233450      0.2019059      0.1583375      0.7500000      0.2006625
  79.1158778      0.2057105      0.1615042      0.7500000      0.2050268
  79.0043785      0.2095775      0.1647343      0.7500000      0.2024433
  78.8887093      0.2135072      0.1680290      0.7500000      0.2082324
  78.7687288      0.2175001      0.1713895      0.7500000      0.2047747
  78.6442921      0.2215565      0.1748173      0.7500000      0.2057842
  78.5152505      0.2256768      0.1783137      0.7500000      0.2039997
  78.3814522      0.2298613      0.1818800      0.7500000      0.2080802
  78.2427415      0.2341103      0.1855176      0.7500000      0.2036367
  78.0989596      0.2384239      0.1892279      0.7500000      0.2051112
  77.9499442      0.2428023      0.1930125      0.7500000      0.2083998
  77.7955298      0.2472456      0.1968727      0.7500000      0.2023873
  77.6355480      0.2517539      0.2008102      0.7500000      0.2006064
  77.4698270      0.2563271      0.2048264      0.7500000      0.2053507
  77.2981925      0.2609652      0.2089229      0.7500000      0.2060903
  77.1204674      0.2656679      0.2131014      0.7500000      0.1991929
  76.9364723      0.2704351      0.2173634      0.7500000      0.2001782
  76.7460253      0.2752665      0.2217107      0.7500000      0.1999763
  76.5489428      0.2801615      0.2261449      0.7500000      0.1978875
  76.3450395      0.2851199      0.2306678      0.7500000      0.1962615
  76.1341286      0.2901409      0.2352811      0.7500000      0.1981027
  75.9160224      0.2952239      0.2399867      0.7500000      0.1995392
  75.6905327      0.3003682      0.2447865      0.7500000      0.2020186
  75.4574708      0.3055730      0.2496822      0.7500000      0.2001171
  75.2166486      0.3108371      0.2546759      0.7500000      0.2009598
  74.9678787      0.3161596      0.2597694      0.7500000      0.2015612
  74.7109748      0.3215392      0.2649648      0.7500000      0.1985575
  74.4457527      0.3269747      0.2702641      0.7500000      0.2095726
  74.1720306      0.3324646      0.2756693      0.7500000      0.2014611
  73.8896300      0.3380072      0.2811827      0.7500000      0.1981420
  73.5983760      0.3436011      0.2868064      0.7500000      0.2003418
  73.2980985      0.3492442      0.2925425      0.7500000      0.1914837
  72.9886327      0.3549347      0.2983934      0.7500000      0.1887440
  72.6698198      0.3606706      0.3043612      0.7500000      0.1863156
  72.3415083      0.3664494      0.3104484      0.7500000      0.1764057
  72.0035544      0.3722690      0.3166574      0.7500000      0.1671728
  71.6558231      0.3781268      0.3229906      0.7500000      0.1589624
  71.2981891      0.3840202      0.3294504      0.7500000      0.1536726
  70.9305379      0.3899464      0.3360394      0.7500000      0.1611132
  70.5527662      0.3959025      0.3427602      0.7500000      0.1388692
  70.1647838      0.4018855      0.3496154      0.7500000      0.1353114
  69.7665136      0.4078923      0.3566077      0.7500000      0.1560680
  69.3578932      0.4139195      0.3637398      0.7500000      0.1671257
  68.9388756      0.4199637      0.3710146      0.7500000      0.1745040
  68.5094300      0.4260216      0.3784349      0.7500000      0.1845198
  68.0695431      0.4320893      0.3860036      0.7500000      0.2027531
  67.6192194      0.4381633      0.3937237      0.7500000      0.2104408
  67.1584823      0.4442397      0.4015982      0.7500000      0.2390351
  66.6873748      0.4503146      0.4096301      0.7500000      0.2291274
  66.2059603      0.4563840      0.4178227      0.7500000      0.2115590
  65.7143226      0.4624441      0.4261792      0.7500000      0.2555723
  65.2125671      0.4684906      0.4347028      0.7500000      0.2289589
  64.7008206      0.4745196      0.4433968      0.7500000      0.2081905
  64.1792319      0.4805268      0.4522648      0.7500000      0.1963838
  63.6479719      0.4865082      0.4613101      0.7500000      0.1921189
  63.1072334      0.4924597      0.4705363      0.7500000      0.1845716
  62.5572312      0.4983771      0.4799470      0.7500000      0.2186015
  61.9982019      0.5042564      0.4895459      0.7500000      0.1791782
  61.4304031      0.5100936      0.4993368      0.7500000      0.2097862
  60.8541136      0.5158847      0.5093236      0.7500000      0.2129357
  60.2696320      0.5216259      0.5195101      0.7500000      0.1694350
  59.6772765      0.5273133      0.5299003      0.7500000      0.1533918
  59.0773836      0.5329434      0.5404983      0.7500000      0.2084801
  58.4703072      0.5385125      0.5513082      0.7500000      0.1565255
  57.8564177      0.5440173      0.5623344      0.7500000      0.1995455
  57.2361001      0.5494545      0.5735811      0.7500000      0.2111343
  56.6097535      0.5548209      0.5850527      0.7500000      0.1795830
  55.9777891      0.5601136      0.5967538      0.7500000      0.1508469
  55.3406286      0.5653298      0.6086888      0.7500000      0.2230597
  54.6987033      0.5704669      0.6208626      0.7500000      0.2020591
  54.0524519      0.5755226      0.6332799      0.7500000      0.1671962
  53.4023192      0.5804945      0.6459455      0.7500000      0.2145436
  52.7487543      0.5853807      0.6588644      0.7500000      0.1697977
  52.0922093      0.5901792      0.6720416      0.7500000      0.1757068
  51.4331373      0.5948886      0.6854825      0.7500000      0.1983647
  50.7719911      0.5995074      0.6991921      0.7500000      0.2164030
  50.1092214      0.6040342      0.7131760      0.7500000      0.3702073
  49.4452759      0.6084682      0.7274395      0.7500000      0.1794057
  48.7805973      0.6128085      0.7419883      0.7500000      0.1367549
  48.1156221      0.6170543      0.7568281      0.7500000      0.1895839
  47.4507797      0.6212053      0.7719646      0.7500000      0.1416006
  46.7864909      0.6252612      0.7874039      0.7500000      0.1798273
  46.1231668      0.6292219      0.8031520      0.7500000      0.1529104
  45.4612082      0.6330873      0.8192150      0.7500000      0.1193293
  44.8010042      0.6368578      0.8355993      0.7500000      0.0873267
  44.1429319      0.6405338      0.8523113      0.7500000      0.0861135
  43.4873555      0.6441156      0.8693575      0.7500000      0.1112774
  42.8346258      0.6476040      0.8867447      0.7500000      0.1374614
  42.1850795      0.6509998      0.9044796      0.7500000      0.1911094
  41.5390391      0.6543038      0.9225692      0.7500000      0.1446762
  40.8968125      0.6575170      0.9410206      0.7500000      0.1337797
  40.2586927      0.6606406      0.9598410      0.7500000      0.1308578
  39.6249579      0.6636757      0.9790378      0.7500000      0.2485107
  38.9958710      0.6666236      0.9986185      0.7500000      0.1855418
  38.3716801      0.6694857      1.0185909      0.7500000      0.1216046
  37.7526182      0.6722633      1.0389627      0.7500000      0.1641850
  37.1389036      0.6749580      1.0597420      0.7500000      0.1121883
  36.5307400      0.6775713      1.0809368      0.7500000      0.1099530
  35.9283166      0.6801048      1.1025556      0.7500000      0.1123528
  35.3318085      0.6825600      1.1246067      0.7500000      0.1089259
  34.7413770      0.6849386      1.1470988      0.7500000      0.1062396
  34.1571700      0.6872423      1.1700408      0.7500000      0.0966149
  33.5793222      0.6894728      1.1934416      0.7500000      0.1455410
  33.0079558      0.6916317      1.2173104      0.7500000      0.1123231
  32.4431805      0.6937209      1.2416566      0.7500000      0.1086914
  31.8850943      0.6957419      1.2664898      0.7500000      0.1026309
  31.3337837      0.6976965      1.2918196      0.7500000      0.2473021
  30.7893243      0.6995865      1.3176560      0.7500000      0.1662103
  30.2517812      0.7014135      1.3440091      0.7500000      0.0945937
  29.7212093      0.7031792      1.3708893      0.7500000      0.5062800
  29.1976540      0.7048853      1.3983070      0.7500000      0.0946338
  28.6811518      0.7065335      1.4262732      0.7500000      0.0851434
  28.1717300      0.7081254      1.4547986      0.7500000      0.0823093
  27.6694081      0.7096626      1.4838946      0.7500000      0.0849967
  27.1741974      0.7111467      1.5135725      0.7500000      0.0757959
  26.6861022      0.7125794      1.5438440      0.7500000      0.0644915
  26.2051195      0.7139621      1.5747208      0.7500000      0.0549305
  25.7312399      0.7152964      1.6062153      0.7500000      0.0418886
  25.2644477      0.7165838      1.6383396      0.7500000      0.0324901
  24.8047215      0.7178256      1.6711064      0.7500000      0.0323565
  24.3520343      0.7190235      1.7045285      0.7500000      0.0121617
  23.9063544      0.7201787      1.7386191      0.7500000      0.0010489
  90.0307789      0.1697512      0.1200000      0.8500000      0.1869894
  89.9660170      0.1730484      0.1224000      0.8500000      0.1870124
  89.8987187      0.1764056      0.1248480      0.8500000      0.1796859
  89.8287881      0.1798237      0.1273450      0.8500000      0.1897627
  89.7561263      0.1833035      0.1298919      0.8500000      0.1852536
  89.6806305      0.1868458      0.1324897      0.8500000      0.1918259
  89.6021950      0.1904515      0.1351395      0.8500000      0.1829642
  89.5207100      0.1941214      0.1378423      0.8500000      0.1879995
  89.4360624      0.1978563      0.1405991      0.8500000      0.1808598
  89.3481353      0.2016569      0.1434111      0.8500000      0.1877712
  89.2568078      0.2055242      0.1462793      0.8500000      0.1813823
  89.1619552      0.2094588      0.1492049      0.8500000      0.1864092
  89.0634490      0.2134616      0.1521890      0.8500000      0.1836816
  88.9611564      0.2175331      0.1552328      0.8500000      0.1848129
  88.8549405      0.2216743      0.1583375      0.8500000      0.1882400
  88.7446605      0.2258857      0.1615042      0.8500000      0.1903759
  88.6301710      0.2301680      0.1647343      0.8500000      0.1880819
  88.5113225      0.2345218      0.1680290      0.8500000      0.1930154
  88.3879612      0.2389478      0.1713895      0.8500000      0.1929839
  88.2599289      0.2434465      0.1748173      0.8500000      0.1872692
  88.1270629      0.2480185      0.1783137      0.8500000      0.1864433
  87.9891963      0.2526642      0.1818800      0.8500000      0.1830261
  87.8461576      0.2573841      0.1855176      0.8500000      0.1836881
  87.6977711      0.2621786      0.1892279      0.8500000      0.1853379
  87.5438566      0.2670480      0.1930125      0.8500000      0.1840393
  87.3842296      0.2719926      0.1968727      0.8500000      0.1878419
  87.2187014      0.2770127      0.2008102      0.8500000      0.1845061
  87.0470790      0.2821084      0.2048264      0.8500000      0.1833006
  86.8691655      0.2872798      0.2089229      0.8500000      0.1809131
  86.6847599      0.2925270      0.2131014      0.8500000      0.1805476
  86.4936575      0.2978499      0.2173634      0.8500000      0.1823469
  86.2956500      0.3032483      0.2217107      0.8500000      0.1823903
  86.0905257      0.3087221      0.2261449      0.8500000      0.1833847
  85.8780696      0.3142709      0.2306678      0.8500000      0.1799474
  85.6580641      0.3198943      0.2352811      0.8500000      0.1804972
  85.4302888      0.3255919      0.2399867      0.8500000      0.1788469
  85.1945213      0.3313629      0.2447865      0.8500000      0.1761259
  84.9505372      0.3372068      0.2496822      0.8500000      0.1718722
  84.6981108      0.3431225      0.2546759      0.8500000      0.1746865
  84.4370158      0.3491092      0.2597694      0.8500000      0.1783084
  84.1670251      0.3551657      0.2649648      0.8500000      0.1686252
  83.8879122      0.3612908      0.2702641      0.8500000      0.1803069
  83.5994514      0.3674832      0.2756693      0.8500000      0.1740011
  83.3014186      0.3737412      0.2811827      0.8500000      0.1763192
  82.9935921      0.3800633      0.2868064      0.8500000      0.1781343
  82.6757530      0.3864476      0.2925425      0.8500000      0.1766676
  82.3476870      0.3928921      0.2983934      0.8500000      0.1810073
  82.0091842      0.3993947      0.3043612      0.8500000      0.1951449
  81.6600408      0.4059530      0.3104484      0.8500000      0.1999390
  81.3000599      0.4125647      0.3166574      0.8500000      0.2143280
  80.9290526      0.4192270      0.3229906      0.8500000      0.2196587
  80.5468391      0.4259371      0.3294504      0.8500000      0.2315766
  80.1532499      0.4326920      0.3360394      0.8500000      0.2663855
  79.7481269      0.4394887      0.3427602      0.8500000      0.2374040
  79.3313247      0.4463236      0.3496154      0.8500000      0.2212282
  78.9027120      0.4531934      0.3566077      0.8500000      0.2316815
  78.4621727      0.4600943      0.3637398      0.8500000      0.2225701
  78.0096073      0.4670225      0.3710146      0.8500000      0.2126976
  77.5449339      0.4739740      0.3784349      0.8500000      0.2044502
  77.0680899      0.4809447      0.3860036      0.8500000      0.1994631
  76.5790330      0.4879303      0.3937237      0.8500000      0.1896060
  76.0777424      0.4949263      0.4015982      0.8500000      0.1939965
  75.5642199      0.5019282      0.4096301      0.8500000      0.1686910
  75.0384911      0.5089314      0.4178227      0.8500000      0.1565021
  74.5006063      0.5159310      0.4261792      0.8500000      0.1822114
  73.9506415      0.5229222      0.4347028      0.8500000      0.1578690
  73.3886990      0.5299001      0.4433968      0.8500000      0.1362662
  72.8149082      0.5368596      0.4522648      0.8500000      0.1195965
  72.2294259      0.5437958      0.4613101      0.8500000      0.1139436
  71.6324371      0.5507036      0.4705363      0.8500000      0.1039779
  71.0241543      0.5575780      0.4799470      0.8500000      0.1231231
  70.4048187      0.5644138      0.4895459      0.8500000      0.1141792
  69.7746988      0.5712062      0.4993368      0.8500000      0.1589101
  69.1340911      0.5779501      0.5093236      0.8500000      0.1822473
  68.4833185      0.5846406      0.5195101      0.8500000      0.1660896
  67.8227305      0.5912730      0.5299003      0.8500000      0.1736032
  67.1527017      0.5978426      0.5404983      0.8500000      0.2560961
  66.4736306      0.6043449      0.5513082      0.8500000      0.1907544
  65.7859387      0.6107755      0.5623344      0.8500000      0.2581860
  65.0900686      0.6171300      0.5735811      0.8500000      0.2704809
  64.3864828      0.6234046      0.5850527      0.8500000      0.2299176
  63.6756616      0.6295953      0.5967538      0.8500000      0.1841735
  62.9581011      0.6356985      0.6086888      0.8500000      0.2579610
  62.2343119      0.6417108      0.6208626      0.8500000      0.1942710
  61.5048161      0.6476290      0.6332799      0.8500000      0.1539464
  60.7701460      0.6534501      0.6459455      0.8500000      0.1939298
  60.0308415      0.6591715      0.6588644      0.8500000      0.1466753
  59.2874480      0.6647907      0.6720416      0.8500000      0.1500549
  58.5405144      0.6703055      0.6854825      0.8500000      0.1656571
  57.7905906      0.6757140      0.6991921      0.8500000      0.1823183
  57.0382261      0.6810144      0.7131760      0.8500000      0.3359362
  56.2839673      0.6862055      0.7274395      0.8500000      0.1765025
  55.5283557      0.6912860      0.7419883      0.8500000      0.1629296
  54.7719266      0.6962550      0.7568281      0.8500000      0.2419886
  54.0152065      0.7011117      0.7719646      0.8500000      0.2018031
  53.2587125      0.7058559      0.7874039      0.8500000      0.2760342
  52.5029497      0.7104872      0.8031520      0.8500000      0.2591329
  51.7484110      0.7150056      0.8192150      0.8500000      0.2206600
  50.9955749      0.7194113      0.8355993      0.8500000      0.1794025
  50.2449052      0.7237048      0.8523113      0.8500000      0.1599423
  49.4968494      0.7278866      0.8693575      0.8500000      0.1513791
  48.7518386      0.7319574      0.8867447      0.8500000      0.1624390
  48.0102862      0.7359183      0.9044796      0.8500000      0.1926753
  47.2725879      0.7397702      0.9225692      0.8500000      0.1277081
  46.5391209      0.7435145      0.9410206      0.8500000      0.1045137
  45.8102437      0.7471523      0.9598410      0.8500000      0.0909871
  45.0862962      0.7506852      0.9790378      0.8500000      0.1642172
  44.3675994      0.7541147      0.9986185      0.8500000      0.1230697
  43.6544553      0.7574426      1.0185909      0.8500000      0.1058934
  42.9471472      0.7606704      1.0389627      0.8500000      0.1600791
  42.2459401      0.7638001      1.0597420      0.8500000      0.1108562
  41.5510804      0.7668336      1.0809368      0.8500000      0.1147498
  40.8627967      0.7697726      1.1025556      0.8500000      0.1215226
  40.1813000      0.7726193      1.1246067      0.8500000      0.1160961
  39.5067843      0.7753756      1.1470988      0.8500000      0.1282454
  38.8394268      0.7780435      1.1700408      0.8500000      0.1175120
  38.1793884      0.7806252      1.1934416      0.8500000      0.1533641
  37.5268146      0.7831227      1.2173104      0.8500000      0.1021652
  36.8818357      0.7855380      1.2416566      0.8500000      0.1071681
  36.2445676      0.7878734      1.2664898      0.8500000      0.0962158
  35.6151121      0.7901308      1.2918196      0.8500000      0.2380325
  34.9935577      0.7923123      1.3176560      0.8500000      0.1524807
  34.3799803      0.7944200      1.3440091      0.8500000      0.0909103
  33.7744434      0.7964559      1.3708893      0.8500000      0.5150835
  33.1769992      0.7984222      1.3983070      0.8500000      0.1012252
  32.5876887      0.8003206      1.4262732      0.8500000      0.0942659
  32.0065426      0.8021534      1.4547986      0.8500000      0.0899213
  31.4335816      0.8039223      1.4838946      0.8500000      0.0879832
  30.8688173      0.8056294      1.5135725      0.8500000      0.0875795
  30.3122523      0.8072765      1.5438440      0.8500000      0.0820828
  29.7638812      0.8088654      1.5747208      0.8500000      0.0808128
  29.2236908      0.8103980      1.6062153      0.8500000      0.0785726
  28.6916604      0.8118760      1.6383396      0.8500000      0.0776200
  28.1677628      0.8133012      1.6711064      0.8500000      0.1218706
  27.6519645      0.8146754      1.7045285      0.8500000      0.0719641
  27.1442258      0.8160000      1.7386191      0.8500000      0.0657021
  26.6445019      0.8172769      1.7733914      0.8500000      0.0573328
  26.1527427      0.8185075      1.8088593      0.8500000      0.0442101
  25.6688935      0.8196933      1.8450364      0.8500000      0.0624449
  25.1928951      0.8208360      1.8819372      0.8500000      0.0236531
  24.7246846      0.8219369      1.9195759      0.8500000      0.0131217
  24.2641954      0.8229975      1.9579674      0.8500000      0.0059995
  99.2826059      0.1828813      0.1200000      0.9500000      0.1824869
  99.2183915      0.1864500      0.1224000      0.9500000      0.1949742
  99.1516376      0.1900848      0.1248480      0.9500000      0.1958544
  99.0822463      0.1937864      0.1273450      0.9500000      0.1930999
  99.0101162      0.1975560      0.1298919      0.9500000      0.1957835
  98.9351421      0.2013945      0.1324897      0.9500000      0.1990014
  98.8572151      0.2053029      0.1351395      0.9500000      0.1876253
  98.7762225      0.2092821      0.1378423      0.9500000      0.1868122
  98.6920476      0.2133333      0.1405991      0.9500000      0.1899779
  98.6045696      0.2174572      0.1434111      0.9500000      0.1862341
  98.5136633      0.2216550      0.1462793      0.9500000      0.1868636
  98.4191996      0.2259274      0.1492049      0.9500000      0.1823644
  98.3210445      0.2302756      0.1521890      0.9500000      0.1793973
  98.2190598      0.2347003      0.1552328      0.9500000      0.1823056
  98.1131026      0.2392025      0.1583375      0.9500000      0.1733530
  98.0030252      0.2437831      0.1615042      0.9500000      0.1741711
  97.8886751      0.2484430      0.1647343      0.9500000      0.1755371
  97.7698948      0.2531829      0.1680290      0.9500000      0.1749328
  97.6465219      0.2580037      0.1713895      0.9500000      0.1775636
  97.5183887      0.2629063      0.1748173      0.9500000      0.1745378
  97.3853226      0.2678912      0.1783137      0.9500000      0.1746980
  97.2471454      0.2729593      0.1818800      0.9500000      0.1717975
  97.1036738      0.2781112      0.1855176      0.9500000      0.1668717
  96.9547192      0.2833475      0.1892279      0.9500000      0.1758368
  96.8000873      0.2886689      0.1930125      0.9500000      0.1735196
  96.6395787      0.2940758      0.1968727      0.9500000      0.1728574
  96.4729884      0.2995688      0.2008102      0.9500000      0.1781251
  96.3001060      0.3051482      0.2048264      0.9500000      0.1789973
  96.1207157      0.3108143      0.2089229      0.9500000      0.1831512
  95.9345964      0.3165675      0.2131014      0.9500000      0.1860026
  95.7415216      0.3224080      0.2173634      0.9500000      0.1851206
  95.5412599      0.3283358      0.2217107      0.9500000      0.1884284
  95.3335745      0.3343511      0.2261449      0.9500000      0.1929560
  95.1182242      0.3404536      0.2306678      0.9500000      0.1948594
  94.8949626      0.3466433      0.2352811      0.9500000      0.2023820
  94.6635393      0.3529200      0.2399867      0.9500000      0.2024140
  94.4236996      0.3592831      0.2447865      0.9500000      0.2021980
  94.1751849      0.3657322      0.2496822      0.9500000      0.2047941
  93.9177333      0.3722668      0.2546759      0.9500000      0.2018726
  93.6510797      0.3788859      0.2597694      0.9500000      0.2032520
  93.3749567      0.3855888      0.2649648      0.9500000      0.1995868
  93.0890946      0.3923744      0.2702641      0.9500000      0.2102779
  92.7932226      0.3992415      0.2756693      0.9500000      0.2020494
  92.4870689      0.4061886      0.2811827      0.9500000      0.2013938
  92.1703618      0.4132144      0.2868064      0.9500000      0.2077173
  91.8428306      0.4203171      0.2925425      0.9500000      0.1981952
  91.5042060      0.4274948      0.2983934      0.9500000      0.1928163
  91.1542216      0.4347454      0.3043612      0.9500000      0.1904256
  90.7926146      0.4420667      0.3104484      0.9500000      0.1794184
  90.4191269      0.4494562      0.3166574      0.9500000      0.1726969
  90.0335066      0.4569112      0.3229906      0.9500000      0.1568252
  89.6355091      0.4644289      0.3294504      0.9500000      0.1517861
  89.2248983      0.4720061      0.3360394      0.9500000      0.1652232
  88.8014483      0.4796396      0.3427602      0.9500000      0.1425575
  88.3649445      0.4873259      0.3496154      0.9500000      0.1372239
  87.9151859      0.4950612      0.3566077      0.9500000      0.1514758
  87.4519857      0.5028415      0.3637398      0.9500000      0.1546466
  86.9751738      0.5106626      0.3710146      0.9500000      0.1552492
  86.4845981      0.5185202      0.3784349      0.9500000      0.1591860
  85.9801264      0.5264097      0.3860036      0.9500000      0.1632339
  85.4616477      0.5343263      0.3937237      0.9500000      0.1674607
  84.9290745      0.5422650      0.4015982      0.9500000      0.1823294
  84.3823442      0.5502205      0.4096301      0.9500000      0.1742788
  83.8214207      0.5581875      0.4178227      0.9500000      0.1695200
  83.2462961      0.5661605      0.4261792      0.9500000      0.2158530
  82.6569919      0.5741339      0.4347028      0.9500000      0.2077283
  82.0535609      0.5821017      0.4433968      0.9500000      0.2050637
  81.4360880      0.5900582      0.4522648      0.9500000      0.2120180
  80.8046915      0.5979972      0.4613101      0.9500000      0.2308177
  80.1595238      0.6059127      0.4705363      0.9500000      0.2412353
  79.5007724      0.6137986      0.4799470      0.9500000      0.2957954
  78.8286601      0.6216487      0.4895459      0.9500000      0.2336582
  78.1434457      0.6294568      0.4993368      0.9500000      0.2703121
  77.4454232      0.6372167      0.5093236      0.9500000      0.2491025
  76.7349223      0.6449225      0.5195101      0.9500000      0.1803384
  76.0123077      0.6525680      0.5299003      0.9500000      0.1462871
  75.2779780      0.6601475      0.5404983      0.9500000      0.1863771
  74.5323647      0.6676550      0.5513082      0.9500000      0.1249416
  73.7759311      0.6750850      0.5623344      0.9500000      0.1490735
  73.0091704      0.6824320      0.5735811      0.9500000      0.1384035
  72.2326042      0.6896908      0.5850527      0.9500000      0.1011594
  71.4467799      0.6968564      0.5967538      0.9500000      0.0751039
  70.6522687      0.7039241      0.6086888      0.9500000      0.1324650
  69.8496633      0.7108893      0.6208626      0.9500000      0.1199410
  69.0395749      0.7177478      0.6332799      0.9500000      0.1248643
  68.2226307      0.7244957      0.6459455      0.9500000      0.1835855
  67.3994711      0.7311294      0.6588644      0.9500000      0.1567272
  66.5707467      0.7376456      0.6720416      0.9500000      0.1677944
  65.7371153      0.7440413      0.6854825      0.9500000      0.1906409
  64.8992394      0.7503140      0.6991921      0.9500000      0.2115169
  64.0577827      0.7564612      0.7131760      0.9500000      0.3952989
  63.2134081      0.7624811      0.7274395      0.9500000      0.2022601
  62.3667744      0.7683719      0.7419883      0.9500000      0.1568594
  61.5185340      0.7741323      0.7568281      0.9500000      0.2135648
  60.6693304      0.7797613      0.7719646      0.9500000      0.1725064
  59.8197961      0.7852582      0.7874039      0.9500000      0.2318620
  58.9705502      0.7906226      0.8031520      0.9500000      0.2092595
  58.1221970      0.7958543      0.8192150      0.9500000      0.1790576
  57.2753238      0.8009535      0.8355993      0.9500000      0.1456722
  56.4304995      0.8059205      0.8523113      0.9500000      0.1386832
  55.5882736      0.8107561      0.8693575      0.9500000      0.1694027
  54.7491748      0.8154610      0.8867447      0.9500000      0.2099448
  53.9137101      0.8200363      0.9044796      0.9500000      0.2782674
  53.0823641      0.8244834      0.9225692      0.9500000      0.2053070
  52.2555985      0.8288035      0.9410206      0.9500000      0.1914426
  51.4338515      0.8329985      0.9598410      0.9500000      0.1807607
  50.6175380      0.8370699      0.9790378      0.9500000      0.3583738
  49.8070490      0.8410198      0.9986185      0.9500000      0.2279310
  49.0027518      0.8448501      1.0185909      0.9500000      0.1377638
  48.2049905      0.8485629      1.0389627      0.9500000      0.1743864
  47.4140858      0.8521604      1.0597420      0.9500000      0.1007637
  46.6303356      0.8556450      1.0809368      0.9500000      0.0841711
  45.8540154      0.8590190      1.1025556      0.9500000      0.0799094
  45.0853788      0.8622847      1.1246067      0.9500000      0.0706025
  44.3246584      0.8654447      1.1470988      0.9500000      0.0885347
  43.5720657      0.8685013      1.1700408      0.9500000      0.0967924
  42.8277927      0.8714572      1.1934416      0.9500000      0.1431827
  42.0920119      0.8743149      1.2173104      0.9500000      0.1068462
  41.3648774      0.8770767      1.2416566      0.9500000      0.1165477
  40.6465255      0.8797454      1.2664898      0.9500000      0.1097763
  39.9370755      0.8823233      1.2918196      0.9500000      0.2811014
  39.2366308      0.8848131      1.3176560      0.9500000      0.1766049
  38.5452789      0.8872171      1.3440091      0.9500000      0.1131358
  37.8630930      0.8895379      1.3708893      0.9500000      0.4919000
  37.1901322      0.8917778      1.3983070      0.9500000      0.0906171
  36.5264427      0.8939394      1.4262732      0.9500000      0.0854767
  35.8720581      0.8960249      1.4547986      0.9500000      0.0808628
  35.2270003      0.8980366      1.4838946      0.9500000      0.0773062
  34.5912802      0.8999769      1.5135725      0.9500000      0.0762463
  33.9648985      0.9018481      1.5438440      0.9500000      0.0849080
  33.3478462      0.9036522      1.5747208      0.9500000      0.0863083
  32.7401050      0.9053914      1.6062153      0.9500000      0.0823536
  32.1416486      0.9070679      1.6383396      0.9500000      0.0768496
  31.5524426      0.9086838      1.6711064      0.9500000      0.1237880
  30.9724452      0.9102409      1.7045285      0.9500000      0.0785892
  30.4016081      0.9117413      1.7386191      0.9500000      0.0726433
  29.8398765      0.9131869      1.7733914      0.9500000      0.0688736
  29.2871900      0.9145795      1.8088593      0.9500000      0.0665024
  28.7434828      0.9159209      1.8450364      0.9500000      0.1124930
  28.2086843      0.9172129      1.8819372      0.9500000      0.0627611
  27.6827194      0.9184573      1.9195759      0.9500000      0.0570778
  27.1655089      0.9196555      1.9579674      0.9500000      0.0563940
  108.0821058      0.1942651      0.1200000      1.0500000      0.1839919
  108.0199819      0.1980724      0.1224000      1.0500000      0.1840709
  107.9553788      0.2019511      0.1248480      1.0500000      0.1820228
  107.8881992      0.2059023      0.1273450      1.0500000      0.1902519
  107.8183420      0.2099271      0.1298919      1.0500000      0.1858765
  107.7457021      0.2140267      0.1324897      1.0500000      0.1921026
  107.6701709      0.2182021      0.1351395      1.0500000      0.1895842
  107.5916353      0.2224546      0.1378423      1.0500000      0.1935448
  107.5099783      0.2267853      0.1405991      1.0500000      0.1972341
  107.4250785      0.2311953      0.1434111      1.0500000      0.1949331
  107.3368099      0.2356858      0.1462793      1.0500000      0.2021919
  107.2450420      0.2402578      0.1492049      1.0500000      0.1997498
  107.1496396      0.2449126      0.1521890      1.0500000      0.1989852
  107.0504625      0.2496512      0.1552328      1.0500000      0.1983044
  106.9473655      0.2544747      0.1583375      1.0500000      0.1984857
  106.8401983      0.2593843      0.1615042      1.0500000      0.2008434
  106.7288052      0.2643810      0.1647343      1.0500000      0.1971893
  106.6130250      0.2694659      0.1680290      1.0500000      0.1996062
  106.4926912      0.2746400      0.1713895      1.0500000      0.1981317
  106.3676311      0.2799043      0.1748173      1.0500000      0.2013157
  106.2376665      0.2852598      0.1783137      1.0500000      0.2017344
  106.1026130      0.2907075      0.1818800      1.0500000      0.2016779
  105.9622804      0.2962483      0.1855176      1.0500000      0.2008610
  105.8164718      0.3018831      0.1892279      1.0500000      0.2012943
  105.6649842      0.3076127      0.1930125      1.0500000      0.2026733
  105.5076083      0.3134380      0.1968727      1.0500000      0.2037676
  105.3441281      0.3193596      0.2008102      1.0500000      0.2028012
  105.1743208      0.3253784      0.2048264      1.0500000      0.1993139
  104.9979573      0.3314948      0.2089229      1.0500000      0.2005732
  104.8148017      0.3377096      0.2131014      1.0500000      0.1940260
  104.6246111      0.3440231      0.2173634      1.0500000      0.1949804
  104.4271361      0.3504359      0.2217107      1.0500000      0.1966282
  104.2221205      0.3569483      0.2261449      1.0500000      0.1955283
  104.0093016      0.3635604      0.2306678      1.0500000      0.1946038
  103.7884099      0.3702725      0.2352811      1.0500000      0.1915981
  103.5591696      0.3770847      0.2399867      1.0500000      0.1914179
  103.3212985      0.3839968      0.2447865      1.0500000      0.1889137
  103.0745082      0.3910087      0.2496822      1.0500000      0.1873195
  102.8185048      0.3981201      0.2546759      1.0500000      0.1871684
  102.5529886      0.4053305      0.2597694      1.0500000      0.1851517
  102.2776547      0.4126394      0.2649648      1.0500000      0.1824450
  101.9921935      0.4200461      0.2702641      1.0500000      0.1901935
  101.6962912      0.4275495      0.2756693      1.0500000      0.1793241
  101.3896301      0.4351488      0.2811827      1.0500000      0.1851243
  101.0718898      0.4428425      0.2868064      1.0500000      0.1803460
  100.7427471      0.4506294      0.2925425      1.0500000      0.1732998
  100.4018775      0.4585077      0.2983934      1.0500000      0.1727523
  100.0489561      0.4664756      0.3043612      1.0500000      0.1697922
  99.6836580      0.4745310      0.3104484      1.0500000      0.1615181
  99.3056600      0.4826718      0.3166574      1.0500000      0.1613612
  98.9146416      0.4908953      0.3229906      1.0500000      0.1520335
  98.5102865      0.4991987      0.3294504      1.0500000      0.1468465
  98.0922837      0.5075792      0.3360394      1.0500000      0.1647568
  97.6603293      0.5160334      0.3427602      1.0500000      0.1499240
  97.2141282      0.5245577      0.3496154      1.0500000      0.1503418
  96.7533957      0.5331485      0.3566077      1.0500000      0.1725626
  96.2778596      0.5418015      0.3637398      1.0500000      0.1820026
  95.7872620      0.5505125      0.3710146      1.0500000      0.1947404
  95.2813616      0.5592768      0.3784349      1.0500000      0.1998208
  94.7599356      0.5680895      0.3860036      1.0500000      0.2077416
  94.2227819      0.5769456      0.3937237      1.0500000      0.2105988
  93.6697220      0.5858394      0.4015982      1.0500000      0.2244597
  93.1006024      0.5947653      0.4096301      1.0500000      0.2050896
  92.5152975      0.6037173      0.4178227      1.0500000      0.1911664
  91.9137120      0.6126893      0.4261792      1.0500000      0.2311140
  91.2957828      0.6216747      0.4347028      1.0500000      0.1917512
  90.6614813      0.6306670      0.4433968      1.0500000      0.1643551
  90.0108156      0.6396593      0.4522648      1.0500000      0.1408312
  89.3438325      0.6486446      0.4613101      1.0500000      0.1283482
  88.6606191      0.6576156      0.4705363      1.0500000      0.1252796
  87.9613043      0.6665652      0.4799470      1.0500000      0.1613848
  87.2460605      0.6754858      0.4895459      1.0500000      0.1375159
  86.5151042      0.6843701      0.4993368      1.0500000      0.1783884
  85.7686973      0.6932105      0.5093236      1.0500000      0.1903075
  85.0071467      0.7019996      0.5195101      1.0500000      0.1555224
  84.2308050      0.7107298      0.5299003      1.0500000      0.1517339
  83.4400701      0.7193939      0.5404983      1.0500000      0.2320258
  82.6353840      0.7279844      0.5513082      1.0500000      0.1856779
  81.8172322      0.7364944      0.5623344      1.0500000      0.2826176
  80.9861420      0.7449167      0.5735811      1.0500000      0.3340376
  80.1426806      0.7532447      0.5850527      1.0500000      0.2865104
  79.2874526      0.7614719      0.5967538      1.0500000      0.2254072
  78.4210978      0.7695920      0.6086888      1.0500000      0.3202744
  77.5442879      0.7775992      0.6208626      1.0500000      0.2031310
  76.6577237      0.7854877      0.6332799      1.0500000      0.1540068
  75.7621311      0.7932525      0.6459455      1.0500000      0.1673620
  74.8582581      0.8008887      0.6588644      1.0500000      0.1070335
  73.9468702      0.8083917      0.6720416      1.0500000      0.0955177
  73.0287475      0.8157576      0.6854825      1.0500000      0.0867293
  72.1046800      0.8229828      0.6991921      1.0500000      0.0810164
  71.1754641      0.8300639      0.7131760      1.0500000      0.1655355
  70.2418985      0.8369982      0.7274395      1.0500000      0.1090330
  69.3047807      0.8437834      0.7419883      1.0500000      0.1111400
  68.3649033      0.8504175      0.7568281      1.0500000      0.1903274
  67.4230504      0.8568989      0.7719646      1.0500000      0.1684717
  66.4799947      0.8632265      0.7874039      1.0500000      0.2423067
  65.5364940      0.8693996      0.8031520      1.0500000      0.2253829
  64.5932892      0.8754178      0.8192150      1.0500000      0.1917575
  63.6511011      0.8812811      0.8355993      1.0500000      0.1613263
  62.7106289      0.8869898      0.8523113      1.0500000      0.1465862
  61.7725477      0.8925445      0.8693575      1.0500000      0.1388227
  60.8375072      0.8979461      0.8867447      1.0500000      0.1643282
  59.9061304      0.9031960      0.9044796      1.0500000      0.2109776
  58.9790123      0.9082954      0.9225692      1.0500000      0.1548601
  58.0567192      0.9132463      0.9410206      1.0500000      0.1427991
  57.1397883      0.9180504      0.9598410      1.0500000      0.1350779
  56.2287270      0.9227098      0.9790378      1.0500000      0.2906562
  55.3240130      0.9272270      0.9986185      1.0500000      0.2352955
  54.4260943      0.9316042      1.0185909      1.0500000      0.1719578
  53.5353895      0.9358440      1.0389627      1.0500000      0.2482540
  52.6522879      0.9399492      1.0597420      1.0500000      0.1748477
  51.7771503      0.9439225      1.0809368      1.0500000      0.1702247
  50.9103094      0.9477667      1.1025556      1.0500000      0.1790165
  50.0520707      0.9514848      1.1246067      1.0500000      0.1667574
  49.2027132      0.9550798      1.1470988      1.0500000      0.1442643
  48.3624902      0.9585546      1.1700408      1.0500000      0.1163009
  47.5316305      0.9619123      1.1934416      1.0500000      0.1412930
  46.7103391      0.9651560      1.2173104      1.0500000      0.0843699
  45.8987981      0.9682886      1.2416566      1.0500000      0.0732888
  45.0971681      0.9713133      1.2664898      1.0500000      0.0694301
  44.3055888      0.9742331      1.2918196      1.0500000      0.2508496
  43.5241804      0.9770509      1.3176560      1.0500000      0.1473160
  42.7530444      0.9797698      1.3440091      1.0500000      0.0942757
  41.9922645      0.9823928      1.3708893      1.0500000      0.4815782
  41.2419079      0.9849226      1.3983070      1.0500000      0.0978105
  40.5020259      0.9873623      1.4262732      1.0500000      0.0894991
  39.7726552      0.9897145      1.4547986      1.0500000      0.0887295
  39.0538185      0.9919822      1.4838946      1.0500000      0.0885807
  38.3455258      0.9941679      1.5135725      1.0500000      0.0853137
  37.6477746      0.9962744      1.5438440      1.0500000      0.0625879
  36.9605513      0.9983043      1.5747208      1.0500000      0.0564982
  36.2838318      1.0002600      1.6062153      1.0500000      0.0516613
  35.6175823      1.0021441      1.6383396      1.0500000      0.0530350
  34.9617598      1.0039590      1.6711064      1.0500000      0.1092855
  34.3163130      1.0057070      1.7045285      1.0500000      0.0646525
  33.6811828      1.0073904      1.7386191      1.0500000      0.0561469
  33.0563032      1.0090115      1.7733914      1.0500000      0.0493581
  32.4416016      1.0105725      1.8088593      1.0500000      0.0508185
  31.8369994      1.0120753      1.8450364      1.0500000      0.0797736
  31.2424125      1.0135221      1.8819372      1.0500000      0.0448586
  30.6577520      1.0149149      1.9195759      1.0500000      0.0433536
  30.0829245      1.0162555      1.9579674      1.0500000      0.0406898
  116.3866191      0.2039595      0.1200000      1.1500000      0.1693578
  116.3278448      0.2079725      0.1224000      1.1500000      0.1688716
  116.2667058      0.2120616      0.1248480      1.1500000      0.1736720
  116.2031075      0.2162282      0.1273450      1.1500000      0.1798954
  116.1369517      0.2204735      0.1298919      1.1500000      0.1827268
  116.0681364      0.2247987      0.1324897      1.1500000      0.1805220
  115.9965555      0.2292053      0.1351395      1.1500000      0.1836940
  115.9220989      0.2336944      0.1378423      1.1500000      0.1833962
  115.8446519      0.2382674      0.1405991      1.1500000      0.1808795
  115.7640958      0.2429256      0.1434111      1.1500000      0.1821063
  115.6803071      0.2476703      0.1462793      1.1500000      0.1850295
  115.5931574      0.2525029      0.1492049      1.1500000      0.1816709
  115.5025135      0.2574245      0.1521890      1.1500000      0.1857308
  115.4082373      0.2624366      0.1552328      1.1500000      0.1848989
  115.3101852      0.2675405      0.1583375      1.1500000      0.1809562
  115.2082082      0.2727374      0.1615042      1.1500000      0.1812852
  115.1021517      0.2780287      0.1647343      1.1500000      0.1848323
  114.9918553      0.2834156      0.1680290      1.1500000      0.1858705
  114.8771526      0.2888994      0.1713895      1.1500000      0.1828056
  114.7578711      0.2944813      0.1748173      1.1500000      0.1840568
  114.6338320      0.3001627      0.1783137      1.1500000      0.1805109
  114.5048496      0.3059446      0.1818800      1.1500000      0.1804601
  114.3707320      0.3118284      0.1855176      1.1500000      0.1840483
  114.2312800      0.3178151      0.1892279      1.1500000      0.1764321
  114.0862875      0.3239060      0.1930125      1.1500000      0.1799865
  113.9355410      0.3301020      0.1968727      1.1500000      0.1781195
  113.7788196      0.3364043      0.2008102      1.1500000      0.1731941
  113.6158950      0.3428139      0.2048264      1.1500000      0.1712017
  113.4465308      0.3493317      0.2089229      1.1500000      0.1744273
  113.2704830      0.3559587      0.2131014      1.1500000      0.1707121
  113.0874992      0.3626956      0.2173634      1.1500000      0.1694447
  112.8973193      0.3695433      0.2217107      1.1500000      0.1665657
  112.6996745      0.3765025      0.2261449      1.1500000      0.1653034
  112.4942879      0.3835737      0.2306678      1.1500000      0.1630019
  112.2808742      0.3907576      0.2352811      1.1500000      0.1644208
  112.0591395      0.3980545      0.2399867      1.1500000      0.1673692
  111.8287817      0.4054649      0.2447865      1.1500000      0.1662912
  111.5894902      0.4129889      0.2496822      1.1500000      0.1696572
  111.3409460      0.4206266      0.2546759      1.1500000      0.1723967
  111.0828220      0.4283781      0.2597694      1.1500000      0.1784258
  110.8147833      0.4362431      0.2649648      1.1500000      0.1762119
  110.5364870      0.4442213      0.2702641      1.1500000      0.1919923
  110.2475829      0.4523124      0.2756693      1.1500000      0.1900601
  109.9477135      0.4605156      0.2811827      1.1500000      0.1940780
  109.6365149      0.4688301      0.2868064      1.1500000      0.1997954
  109.3136170      0.4772549      0.2925425      1.1500000      0.1990823
  108.9786444      0.4857887      0.2983934      1.1500000      0.2039262
  108.6312168      0.4944302      0.3043612      1.1500000      0.2048235
  108.2709503      0.5031777      0.3104484      1.1500000      0.2072130
  107.8974578      0.5120291      0.3166574      1.1500000      0.2083084
  107.5103507      0.5209825      0.3229906      1.1500000      0.2078402
  107.1092397      0.5300353      0.3294504      1.1500000      0.2102785
  106.6937364      0.5391848      0.3360394      1.1500000      0.2278177
  106.2634547      0.5484279      0.3427602      1.1500000      0.2026198
  105.8180126      0.5577615      0.3496154      1.1500000      0.1881813
  105.3570341      0.5671818      0.3566077      1.1500000      0.1940979
  104.8801510      0.5766849      0.3637398      1.1500000      0.1869740
  104.3870051      0.5862666      0.3710146      1.1500000      0.1784296
  103.8772508      0.5959221      0.3784349      1.1500000      0.1660742
  103.3505575      0.6056465      0.3860036      1.1500000      0.1602116
  102.8066119      0.6154346      0.3937237      1.1500000      0.1580704
  102.2451214      0.6252806      0.4015982      1.1500000      0.1672804
  101.6658164      0.6351785      0.4096301      1.1500000      0.1493457
  101.0684537      0.6451220      0.4178227      1.1500000      0.1407404
  100.4528197      0.6551043      0.4261792      1.1500000      0.1641516
  99.8187331      0.6651184      0.4347028      1.1500000      0.1403703
  99.1660483      0.6751570      0.4433968      1.1500000      0.1258243
  98.4946589      0.6852124      0.4522648      1.1500000      0.1164292
  97.8045000      0.6952766      0.4613101      1.1500000      0.1287655
  97.0955518      0.7053414      0.4705363      1.1500000      0.1429772
  96.3678423      0.7153983      0.4799470      1.1500000      0.1991287
  95.6214496      0.7254388      0.4895459      1.1500000      0.1830815
  94.8565044      0.7354540      0.4993368      1.1500000      0.2354699
  94.0731920      0.7454350      0.5093236      1.1500000      0.2384905
  93.2717537      0.7553726      0.5195101      1.1500000      0.1923642
  92.4524884      0.7652578      0.5299003      1.1500000      0.1692666
  91.6157528      0.7750815      0.5404983      1.1500000      0.2341953
  90.7619617      0.7848346      0.5513082      1.1500000      0.1516617
  89.8915879      0.7945082      0.5623344      1.1500000      0.1739226
  89.0051608      0.8040934      0.5735811      1.1500000      0.1612519
  88.1032655      0.8135817      0.5850527      1.1500000      0.1396374
  87.1865402      0.8229646      0.5967538      1.1500000      0.1173001
  86.2556736      0.8322340      0.6086888      1.1500000      0.2047004
  85.3114021      0.8413821      0.6208626      1.1500000      0.1464843
  84.3545058      0.8504017      0.6332799      1.1500000      0.1432471
  83.3858045      0.8592855      0.6459455      1.1500000      0.2137580
  82.4061533      0.8680273      0.6588644      1.1500000      0.1902663
  81.4164376      0.8766207      0.6720416      1.1500000      0.2282561
  80.4175682      0.8850604      0.6854825      1.1500000      0.2692261
  79.4104759      0.8933412      0.6991921      1.1500000      0.3007470
  78.3961067      0.9014587      0.7131760      1.1500000      0.4883955
  77.3754158      0.9094088      0.7274395      1.1500000      0.2158256
  76.3493626      0.9171881      0.7419883      1.1500000      0.1446856
  75.3189061      0.9247939      0.7568281      1.1500000      0.1716430
  74.2849990      0.9322236      0.7719646      1.1500000      0.1083976
  73.2485841      0.9394755      0.7874039      1.1500000      0.1131468
  72.2105890      0.9465484      0.8031520      1.1500000      0.0875775
  71.1719228      0.9534413      0.8192150      1.1500000      0.0928251
  70.1334723      0.9601540      0.8355993      1.1500000      0.1007842
  69.0960983      0.9666866      0.8523113      1.1500000      0.1242520
  68.0606334      0.9730397      0.8693575      1.1500000      0.1557473
  67.0278793      0.9792142      0.8867447      1.1500000      0.1876049
  65.9986047      0.9852113      0.9044796      1.1500000      0.2418742
  64.9735438      0.9910328      0.9225692      1.1500000      0.1726412
  63.9533949      0.9966806      0.9410206      1.1500000      0.1485798
  62.9388197      1.0021570      0.9598410      1.1500000      0.1291133
  61.9304426      1.0074645      0.9790378      1.1500000      0.2273501
  60.9288505      1.0126058      0.9986185      1.1500000      0.1169361
  59.9345929      1.0175837      1.0185909      1.1500000      0.0832085
  58.9481818      1.0224015      1.0389627      1.1500000      0.1450595
  57.9700927      1.0270624      1.0597420      1.1500000      0.1049827
  57.0007649      1.0315696      1.0809368      1.1500000      0.0996286
  56.0406025      1.0359268      1.1025556      1.1500000      0.0990760
  55.0899754      1.0401373      1.1246067      1.1500000      0.0877806
  54.1492203      1.0442049      1.1470988      1.1500000      0.0921950
  53.2186419      1.0481332      1.1700408      1.1500000      0.0710526
  52.2985142      1.0519258      1.1934416      1.1500000      0.0750133
  51.3890818      1.0555864      1.2173104      1.1500000      0.0431290
  50.4905611      1.0591188      1.2416566      1.1500000      0.0318219
  49.6031419      1.0625266      1.2664898      1.1500000      0.0097841
  48.7269886      1.0658134      1.2918196      1.1500000      0.0006555
  47.8622415      1.0689829      1.3176560      1.1500000      0.0041322
  47.0090183      1.0720387      1.3440091      1.1500000      0.0025066
  46.1674154      1.0749843      1.3708893      1.1500000      0.0023946
  45.3375089      1.0778232      1.3983070      1.1500000      0.0011250
  44.5193564      1.0805587      1.4262732      1.1500000      0.0001260
  124.1591811      0.2120637      0.1200000      1.2500000      0.1726883
  124.1047021      0.2162505      0.1224000      1.2500000      0.1797545
  124.0480153      0.2205176      0.1248480      1.2500000      0.1863034
  123.9890313      0.2248664      0.1273450      1.2500000      0.1797895
  123.9276570      0.2292984      0.1298919      1.2500000      0.1762511
  123.8637952      0.2338149      0.1324897      1.2500000      0.1767708
  123.7973452      0.2384174      0.1351395      1.2500000      0.1792838
  123.7282019      0.2431074      0.1378423      1.2500000      0.1806053
  123.6562563      0.2478862      0.1405991      1.2500000      0.1856694
  123.5813947      0.2527554      0.1434111      1.2500000      0.1818662
  123.5034989      0.2577164      0.1462793      1.2500000      0.1837542
  123.4224461      0.2627708      0.1492049      1.2500000      0.1782550
  123.3381083      0.2679200      0.1521890      1.2500000      0.1812463
  123.2503527      0.2731655      0.1552328      1.2500000      0.1783607
  123.1590409      0.2785088      0.1583375      1.2500000      0.1798014
  123.0640291      0.2839514      0.1615042      1.2500000      0.1769542
  122.9651678      0.2894948      0.1647343      1.2500000      0.1820400
  122.8623015      0.2951406      0.1680290      1.2500000      0.1748826
  122.7552686      0.3008901      0.1713895      1.2500000      0.1799883
  122.6439011      0.3067450      0.1748173      1.2500000      0.1773592
  122.5280243      0.3127067      0.1783137      1.2500000      0.1826699
  122.4074569      0.3187767      0.1818800      1.2500000      0.1833038
  122.2820102      0.3249563      0.1855176      1.2500000      0.1807763
  122.1514884      0.3312472      0.1892279      1.2500000      0.1841154
  122.0156881      0.3376506      0.1930125      1.2500000      0.1827646
  121.8743981      0.3441681      0.1968727      1.2500000      0.1829456
  121.7273990      0.3508009      0.2008102      1.2500000      0.1815166
  121.5744633      0.3575504      0.2048264      1.2500000      0.1841201
  121.4153548      0.3644179      0.2089229      1.2500000      0.1829583
  121.2498286      0.3714046      0.2131014      1.2500000      0.1870517
  121.0776307      0.3785119      0.2173634      1.2500000      0.1879791
  120.8984977      0.3857407      0.2217107      1.2500000      0.1889874
  120.7121570      0.3930923      0.2261449      1.2500000      0.1888366
  120.5183260      0.4005676      0.2306678      1.2500000      0.1932726
  120.3167123      0.4081676      0.2352811      1.2500000      0.1928678
  120.1070135      0.4158932      0.2399867      1.2500000      0.1928383
  119.8889165      0.4237451      0.2447865      1.2500000      0.1868619
  119.6620984      0.4317241      0.2496822      1.2500000      0.1856527
  119.4262253      0.4398308      0.2546759      1.2500000      0.1832266
  119.1809528      0.4480656      0.2597694      1.2500000      0.1807767
  118.9259259      0.4564288      0.2649648      1.2500000      0.1723198
  118.6607790      0.4649206      0.2702641      1.2500000      0.1756257
  118.3851359      0.4735412      0.2756693      1.2500000      0.1643720
  118.0986099      0.4822903      0.2811827      1.2500000      0.1602131
  117.8008041      0.4911678      0.2868064      1.2500000      0.1577792
  117.4913114      0.5001731      0.2925425      1.2500000      0.1509508
  117.1697154      0.5093056      0.2983934      1.2500000      0.1500970
  116.8355902      0.5185643      0.3043612      1.2500000      0.1517311
  116.4885014      0.5279483      0.3104484      1.2500000      0.1467272
  116.1280068      0.5374560      0.3166574      1.2500000      0.1524164
  115.7536569      0.5470859      0.3229906      1.2500000      0.1504947
  115.3649961      0.5568361      0.3294504      1.2500000      0.1526235
  114.9615638      0.5667043      0.3360394      1.2500000      0.1673020
  114.5428958      0.5766881      0.3427602      1.2500000      0.1510679
  114.1085253      0.5867847      0.3496154      1.2500000      0.1444832
  113.6579854      0.5969907      0.3566077      1.2500000      0.1552857
  113.1908103      0.6073027      0.3637398      1.2500000      0.1578445
  112.7065376      0.6177168      0.3710146      1.2500000      0.1564347
  112.2047110      0.6282286      0.3784349      1.2500000      0.1613875
  111.6848822      0.6388334      0.3860036      1.2500000      0.1770279
  111.1466146      0.6495261      0.3937237      1.2500000      0.1904758
  110.5894856      0.6603011      0.4015982      1.2500000      0.2142440
  110.0130901      0.6711524      0.4096301      1.2500000      0.2161061
  109.4170445      0.6820735      0.4178227      1.2500000      0.2126567
  108.8009897      0.6930575      0.4261792      1.2500000      0.2612530
  108.1645959      0.7040972      0.4347028      1.2500000      0.2422293
  107.5075657      0.7151846      0.4433968      1.2500000      0.2283579
  106.8296392      0.7263116      0.4522648      1.2500000      0.2103129
  106.1305980      0.7374695      0.4613101      1.2500000      0.2065388
  105.4102693      0.7486493      0.4705363      1.2500000      0.1928487
  104.6685305      0.7598416      0.4799470      1.2500000      0.2083980
  103.9053135      0.7710366      0.4895459      1.2500000      0.1616393
  103.1206082      0.7822241      0.4993368      1.2500000      0.1700505
  102.3144670      0.7933938      0.5093236      1.2500000      0.1642296
  101.4870076      0.8045350      0.5195101      1.2500000      0.1272847
  100.6384164      0.8156369      0.5299003      1.2500000      0.1118681
  99.7689507      0.8266887      0.5404983      1.2500000      0.1415802
  98.8789408      0.8376791      0.5513082      1.2500000      0.0980482
  97.9687911      0.8485973      0.5623344      1.2500000      0.1436625
  97.0389809      0.8594322      0.5735811      1.2500000      0.1812891
  96.0900635      0.8701729      0.5850527      1.2500000      0.1792411
  95.1226657      0.8808087      0.5967538      1.2500000      0.1587033
  94.1374853      0.8913291      0.6086888      1.2500000      0.2580813
  93.1352887      0.9017241      0.6208626      1.2500000      0.1806578
  92.1169073      0.9119839      0.6332799      1.2500000      0.1614882
  91.0832327      0.9220992      0.6459455      1.2500000      0.2007361
  90.0352120      0.9320612      0.6588644      1.2500000      0.1312795
  88.9738419      0.9418616      0.6720416      1.2500000      0.1164798
  87.9001623      0.9514927      0.6854825      1.2500000      0.1357205
  86.8152499      0.9609476      0.6991921      1.2500000      0.1792423
  85.7202110      0.9702198      0.7131760      1.2500000      0.3782470
  84.6161743      0.9793036      0.7274395      1.2500000      0.2124910
  83.5042835      0.9881942      0.7419883      1.2500000      0.2185955
  82.3856905      0.9968871      0.7568281      1.2500000      0.3602474
  81.2615479      1.0053788      0.7719646      1.2500000      0.2643121
  80.1330025      1.0136665      0.7874039      1.2500000      0.3019541
  79.0011889      1.0217478      0.8031520      1.2500000      0.2037863
  77.8672232      1.0296214      0.8192150      1.2500000      0.0760880
  76.7321980      1.0372862      0.8355993      1.2500000      0.0124147
  75.5971773      1.0447420      0.8523113      1.2500000      0.0007194
  74.4631918      1.0519892      0.8693575      1.2500000      0.0069272
  73.3312359      1.0590284      0.8867447      1.2500000      0.0073097
  72.2022636      1.0658610      0.9044796      1.2500000      0.0051420
  71.0771868      1.0724889      0.9225692      1.2500000      0.0020837
  69.9568728      1.0789141      0.9410206      1.2500000      0.0002720
  131.3700498      0.2187110      0.1200000      1.3500000      0.1656383
  131.3204959      0.2230416      0.1224000      1.3500000      0.1677084
  131.2689216      0.2274561      0.1248480      1.3500000      0.1767416
  131.2152439      0.2319559      0.1273450      1.3500000      0.1749370
  131.1593764      0.2365427      0.1298919      1.3500000      0.1766311
  131.1012290      0.2412180      0.1324897      1.3500000      0.1776075
  131.0407078      0.2459832      0.1351395      1.3500000      0.1773192
  130.9777153      0.2508400      0.1378423      1.3500000      0.1815661
  130.9121497      0.2557900      0.1405991      1.3500000      0.1793050
  130.8439049      0.2608348      0.1434111      1.3500000      0.1829093
  130.7728705      0.2659761      0.1462793      1.3500000      0.1802925
  130.6989315      0.2712153      0.1492049      1.3500000      0.1722904
  130.6219680      0.2765543      0.1521890      1.3500000      0.1758872
  130.5418554      0.2819947      0.1552328      1.3500000      0.1759684
  130.4584635      0.2875381      0.1583375      1.3500000      0.1750946
  130.3716571      0.2931862      0.1615042      1.3500000      0.1746541
  130.2812949      0.2989408      0.1647343      1.3500000      0.1736694
  130.1872301      0.3048036      0.1680290      1.3500000      0.1744975
  130.0893096      0.3107762      0.1713895      1.3500000      0.1746896
  129.9873741      0.3168604      0.1748173      1.3500000      0.1769018
  129.8812575      0.3230578      0.1783137      1.3500000      0.1687302
  129.7707870      0.3293703      0.1818800      1.3500000      0.1673350
  129.6557825      0.3357995      0.1855176      1.3500000      0.1679339
  129.5360566      0.3423471      0.1892279      1.3500000      0.1681256
  129.4114139      0.3490148      0.1930125      1.3500000      0.1662005
  129.2816512      0.3558044      0.1968727      1.3500000      0.1642523
  129.1465570      0.3627175      0.2008102      1.3500000      0.1661801
  129.0059110      0.3697556      0.2048264      1.3500000      0.1649675
  128.8594841      0.3769206      0.2089229      1.3500000      0.1690414
  128.7070376      0.3842140      0.2131014      1.3500000      0.1685840
  128.5483235      0.3916373      0.2173634      1.3500000      0.1693305
  128.3830836      0.3991920      0.2217107      1.3500000      0.1698204
  128.2110495      0.4068798      0.2261449      1.3500000      0.1737425
  128.0319422      0.4147020      0.2306678      1.3500000      0.1714738
  127.8454716      0.4226600      0.2352811      1.3500000      0.1729092
  127.6513364      0.4307551      0.2399867      1.3500000      0.1764507
  127.4492236      0.4389887      0.2447865      1.3500000      0.1730661
  127.2388082      0.4473618      0.2496822      1.3500000      0.1733673
  127.0197530      0.4558755      0.2546759      1.3500000      0.1740733
  126.7917083      0.4645309      0.2597694      1.3500000      0.1766654
  126.5543114      0.4733289      0.2649648      1.3500000      0.1722938
  126.3071868      0.4822702      0.2702641      1.3500000      0.1811151
  126.0499455      0.4913554      0.2756693      1.3500000      0.1745697
  125.7821854      0.5005851      0.2811827      1.3500000      0.1771174
  125.5034904      0.5099596      0.2868064      1.3500000      0.1773561
  125.2134312      0.5194790      0.2925425      1.3500000      0.1725907
  124.9115648      0.5291435      0.2983934      1.3500000      0.1757487
  124.5974347      0.5389526      0.3043612      1.3500000      0.1771476
  124.2705711      0.5489062      0.3104484      1.3500000      0.1738889
  123.9304913      0.5590034      0.3166574      1.3500000      0.1757376
  123.5766997      0.5692433      0.3229906      1.3500000      0.1770816
  123.2086888      0.5796249      0.3294504      1.3500000      0.1755337
  122.8259398      0.5901465      0.3360394      1.3500000      0.1949412
  122.4279234      0.6008065      0.3427602      1.3500000      0.1768460
  122.0141005      0.6116027      0.3496154      1.3500000      0.1687912
  121.5839241      0.6225326      0.3566077      1.3500000      0.1847061
  121.1368405      0.6335934      0.3637398      1.3500000      0.1865840
  120.6722909      0.6447818      0.3710146      1.3500000      0.1856553
  120.1897135      0.6560941      0.3784349      1.3500000      0.1767997
  119.6885461      0.6675263      0.3860036      1.3500000      0.1749000
  119.1682282      0.6790736      0.3937237      1.3500000      0.1649439
  118.6282045      0.6907311      0.4015982      1.3500000      0.1652848
  118.0679278      0.7024931      0.4096301      1.3500000      0.1429340
  117.4868628      0.7143535      0.4178227      1.3500000      0.1305295
  116.8844901      0.7263057      0.4261792      1.3500000      0.1565979
  116.2603106      0.7383424      0.4347028      1.3500000      0.1407120
  115.6138502      0.7504558      0.4433968      1.3500000      0.1339177
  114.9446648      0.7626377      0.4522648      1.3500000      0.1295405
  114.2523456      0.7748790      0.4613101      1.3500000      0.1362887
  113.5365250      0.7871703      0.4705363      1.3500000      0.1391975
  112.7968819      0.7995016      0.4799470      1.3500000      0.1733160
  112.0331480      0.8118623      0.4895459      1.3500000      0.1641265
  111.2451139      0.8242412      0.4993368      1.3500000      0.2165896
  110.4326347      0.8366268      0.5093236      1.3500000      0.2484533
  109.5956358      0.8490072      0.5195101      1.3500000      0.2210620
  108.7341189      0.8613698      0.5299003      1.3500000      0.2186812
  107.8481667      0.8737019      0.5404983      1.3500000      0.2932052
  106.9379474      0.8859905      0.5513082      1.3500000      0.2222502
  106.0037190      0.8982224      0.5623344      1.3500000      0.2680222
  105.0458322      0.9103842      0.5735811      1.3500000      0.2505184
  104.0647327      0.9224624      0.5850527      1.3500000      0.1965236
  103.0609620      0.9344438      0.5967538      1.3500000      0.1471647
  102.0351577      0.9463151      0.6086888      1.3500000      0.1944401
  100.9880524      0.9580633      0.6208626      1.3500000      0.1368282
  99.9204709      0.9696758      0.6332799      1.3500000      0.1176441
  98.8333267      0.9811402      0.6459455      1.3500000      0.1511755
  97.7276172      0.9924448      0.6588644      1.3500000      0.1420431
  96.6044175      1.0035784      0.6720416      1.3500000      0.1574769
  95.4648734      1.0145305      0.6854825      1.3500000      0.1499817
  94.3101933      1.0252914      0.6991921      1.3500000      0.1185670
  93.1416394      1.0358519      0.7131760      1.3500000      0.1128757
  91.9605187      1.0462041      0.7274395      1.3500000      0.0256630
  90.7681727      1.0563405      0.7419883      1.3500000      0.0066640
  89.5659677      1.0662548      0.7568281      1.3500000      0.0000206
  88.3552851      1.0759416      0.7719646      1.3500000      0.0000238
  137.9979769      0.2240578      0.1200000      1.4500000      0.1744669
  137.9536832      0.2285050      0.1224000      1.4500000      0.1715868
  137.9075744      0.2330390      0.1248480      1.4500000      0.1791446
  137.8595752      0.2376615      0.1273450      1.4500000      0.1805941
  137.8096070      0.2423740      0.1298919      1.4500000      0.1853247
  137.7575879      0.2471781      0.1324897      1.4500000      0.1777174
  137.7034326      0.2520756      0.1351395      1.4500000      0.1814850
  137.6470520      0.2570682      0.1378423      1.4500000      0.1827251
  137.5883533      0.2621575      0.1405991      1.4500000      0.1819592
  137.5272397      0.2673453      0.1434111      1.4500000      0.1843755
  137.4636103      0.2726333      0.1462793      1.4500000      0.1840372
  137.3973599      0.2780233      0.1492049      1.4500000      0.1816426
  137.3283785      0.2835172      0.1521890      1.4500000      0.1856068
  137.2565519      0.2891167      0.1552328      1.4500000      0.1821990
  137.1817605      0.2948236      0.1583375      1.4500000      0.1901211
  137.1038797      0.3006399      0.1615042      1.4500000      0.1847692
  137.0227796      0.3065673      0.1647343      1.4500000      0.1911021
  136.9383247      0.3126079      0.1680290      1.4500000      0.1849099
  136.8503735      0.3187634      0.1713895      1.4500000      0.1905408
  136.7587784      0.3250358      0.1748173      1.4500000      0.1859756
  136.6633856      0.3314270      0.1783137      1.4500000      0.1891142
  136.5640343      0.3379390      0.1818800      1.4500000      0.1898083
  136.4605570      0.3445736      0.1855176      1.4500000      0.1872043
  136.3527788      0.3513329      0.1892279      1.4500000      0.1865791
  136.2405172      0.3582188      0.1930125      1.4500000      0.1878366
  136.1235819      0.3652333      0.1968727      1.4500000      0.1836500
  136.0017742      0.3723782      0.2008102      1.4500000      0.1881669
  135.8748867      0.3796556      0.2048264      1.4500000      0.1891905
  135.7427031      0.3870675      0.2089229      1.4500000      0.1905335
  135.6049978      0.3946156      0.2131014      1.4500000      0.1903885
  135.4615353      0.4023020      0.2173634      1.4500000      0.1869096
  135.3120700      0.4101285      0.2217107      1.4500000      0.1858282
  135.1563455      0.4180970      0.2261449      1.4500000      0.1846204
  134.9940946      0.4262094      0.2306678      1.4500000      0.1822232
  134.8250385      0.4344674      0.2352811      1.4500000      0.1792996
  134.6488865      0.4428728      0.2399867      1.4500000      0.1805407
  134.4653355      0.4514274      0.2447865      1.4500000      0.1797276
  134.2740695      0.4601327      0.2496822      1.4500000      0.1744032
  134.0747594      0.4689905      0.2546759      1.4500000      0.1727195
  133.8670619      0.4780021      0.2597694      1.4500000      0.1710758
  133.6506198      0.4871691      0.2649648      1.4500000      0.1629780
  133.4250612      0.4964928      0.2702641      1.4500000      0.1667137
  133.1899987      0.5059745      0.2756693      1.4500000      0.1563748
  132.9450296      0.5156153      0.2811827      1.4500000      0.1540772
  132.6897350      0.5254161      0.2868064      1.4500000      0.1518958
  132.4236799      0.5353780      0.2925425      1.4500000      0.1442506
  132.1464123      0.5455015      0.2983934      1.4500000      0.1422711
  131.8574631      0.5557872      0.3043612      1.4500000      0.1387484
  131.5563462      0.5662355      0.3104484      1.4500000      0.1401996
  131.2425580      0.5768466      0.3166574      1.4500000      0.1403044
  130.9155772      0.5876203      0.3229906      1.4500000      0.1400197
  130.5748651      0.5985563      0.3294504      1.4500000      0.1448902
  130.2198658      0.6096541      0.3360394      1.4500000      0.1601242
  129.8500061      0.6209127      0.3427602      1.4500000      0.1451064
  129.4646963      0.6323309      0.3496154      1.4500000      0.1472018
  129.0633306      0.6439073      0.3566077      1.4500000      0.1609753
  128.6452881      0.6556398      0.3637398      1.4500000      0.1668772
  128.2099338      0.6675263      0.3710146      1.4500000      0.1740572
  127.7566200      0.6795639      0.3784349      1.4500000      0.1762012
  127.2846877      0.6917495      0.3860036      1.4500000      0.1836644
  126.7934690      0.7040793      0.3937237      1.4500000      0.1883128
  126.2822893      0.7165493      0.4015982      1.4500000      0.1998188
  125.7504697      0.7291546      0.4096301      1.4500000      0.1916836
  125.1973310      0.7418899      0.4178227      1.4500000      0.1809284
  124.6221964      0.7547494      0.4261792      1.4500000      0.2175196
  124.0243965      0.7677264      0.4347028      1.4500000      0.1977174
  123.4032734      0.7808137      0.4433968      1.4500000      0.1801694
  122.7581863      0.7940035      0.4522648      1.4500000      0.1714674
  122.0885170      0.8072870      0.4613101      1.4500000      0.1771969
  121.3936765      0.8206550      0.4705363      1.4500000      0.1773863
  120.6731111      0.8340974      0.4799470      1.4500000      0.2168034
  119.9263106      0.8476034      0.4895459      1.4500000      0.1750708
  119.1528152      0.8611615      0.4993368      1.4500000      0.1931640
  118.3522240      0.8747595      0.5093236      1.4500000      0.1734041
  117.5242028      0.8883844      0.5195101      1.4500000      0.1325827
  116.6684928      0.9020227      0.5299003      1.4500000      0.1247667
  115.7849187      0.9156602      0.5404983      1.4500000      0.1786004
  114.8733967      0.9292822      0.5513082      1.4500000      0.1397389
  113.9339425      0.9428733      0.5623344      1.4500000      0.1940324
  112.9666776      0.9564181      0.5735811      1.4500000      0.2269064
  111.9718362      0.9699005      0.5850527      1.4500000      0.2359429
  110.9497699      0.9833044      0.5967538      1.4500000      0.2350861
  109.9009517      0.9966135      0.6086888      1.4500000      0.3473549
  108.8259781      1.0098116      0.6208626      1.4500000      0.2237965
  107.7255702      1.0228825      0.6332799      1.4500000      0.1488052
  106.6005723      1.0358105      0.6459455      1.4500000      0.0827294
  105.4519492      1.0485802      0.6588644      1.4500000      0.0267296
  104.2807818      1.0611765      0.6720416      1.4500000      0.0019470
  103.0882600      1.0735854      0.6854825      1.4500000      0.0000475
  144.0311337      0.2282737      0.1200000      1.5500000      0.1712154
  143.9921785      0.2328135      0.1224000      1.5500000      0.1709586
  143.9516205      0.2374424      0.1248480      1.5500000      0.1733059
  143.9093926      0.2421622      0.1273450      1.5500000      0.1791333
  143.8654246      0.2469746      0.1298919      1.5500000      0.1777833
  143.8196437      0.2518812      0.1324897      1.5500000      0.1844374
  143.7719736      0.2568839      0.1351395      1.5500000      0.1769527
  143.7223348      0.2619844      0.1378423      1.5500000      0.1832266
  143.6706443      0.2671846      0.1405991      1.5500000      0.1799266
  143.6168156      0.2724862      0.1434111      1.5500000      0.1843831
  143.5607583      0.2778912      0.1462793      1.5500000      0.1889376
  143.5023779      0.2834015      0.1492049      1.5500000      0.1816143
  143.4415761      0.2890189      0.1521890      1.5500000      0.1838624
  143.3782499      0.2947454      0.1552328      1.5500000      0.1787086
  143.3122920      0.3005830      0.1583375      1.5500000      0.1773867
  143.2435903      0.3065337      0.1615042      1.5500000      0.1805299
  143.1720276      0.3125994      0.1647343      1.5500000      0.1827517
  143.0974817      0.3187823      0.1680290      1.5500000      0.1807469
  143.0198246      0.3250843      0.1713895      1.5500000      0.1857206
  142.9389230      0.3315077      0.1748173      1.5500000      0.1790967
  142.8546373      0.3380544      0.1783137      1.5500000      0.1811806
  142.7668218      0.3447266      0.1818800      1.5500000      0.1793736
  142.6753241      0.3515264      0.1855176      1.5500000      0.1780573
  142.5799851      0.3584560      0.1892279      1.5500000      0.1754675
  142.4806384      0.3655177      0.1930125      1.5500000      0.1769249
  142.3771099      0.3727135      0.1968727      1.5500000      0.1771600
  142.2692178      0.3800456      0.2008102      1.5500000      0.1720057
  142.1567721      0.3875164      0.2048264      1.5500000      0.1781827
  142.0395738      0.3951279      0.2089229      1.5500000      0.1773553
  141.9174151      0.4028825      0.2131014      1.5500000      0.1770958
  141.7900786      0.4107823      0.2173634      1.5500000      0.1756435
  141.6573369      0.4188295      0.2217107      1.5500000      0.1738043
  141.5189522      0.4270264      0.2261449      1.5500000      0.1726271
  141.3746758      0.4353752      0.2306678      1.5500000      0.1769403
  141.2242475      0.4438780      0.2352811      1.5500000      0.1758486
  141.0673953      0.4525371      0.2399867      1.5500000      0.1757119
  140.9038345      0.4613545      0.2447865      1.5500000      0.1753999
  140.7332676      0.4703323      0.2496822      1.5500000      0.1744842
  140.5553832      0.4794727      0.2546759      1.5500000      0.1736697
  140.3698558      0.4887777      0.2597694      1.5500000      0.1759321
  140.1763450      0.4982492      0.2649648      1.5500000      0.1731668
  139.9744950      0.5078891      0.2702641      1.5500000      0.1830867
  139.7639336      0.5176993      0.2756693      1.5500000      0.1748081
  139.5442721      0.5276815      0.2811827      1.5500000      0.1780390
  139.3151043      0.5378375      0.2868064      1.5500000      0.1807072
  139.0760058      0.5481686      0.2925425      1.5500000      0.1801323
  138.8265334      0.5586765      0.2983934      1.5500000      0.1840040
  138.5662247      0.5693623      0.3043612      1.5500000      0.1869929
  138.2945971      0.5802273      0.3104484      1.5500000      0.1863155
  138.0111475      0.5912724      0.3166574      1.5500000      0.1861552
  137.7153517      0.6024984      0.3229906      1.5500000      0.1863653
  137.4066636      0.6139060      0.3294504      1.5500000      0.1837252
  137.0845152      0.6254954      0.3360394      1.5500000      0.1994915
  136.7483161      0.6372668      0.3427602      1.5500000      0.1801259
  136.3974531      0.6492201      0.3496154      1.5500000      0.1675371
  136.0312903      0.6613547      0.3566077      1.5500000      0.1751287
  135.6491691      0.6736699      0.3637398      1.5500000      0.1704308
  135.2504082      0.6861645      0.3710146      1.5500000      0.1615011
  134.8343045      0.6988370      0.3784349      1.5500000      0.1517562
  134.4001335      0.7116854      0.3860036      1.5500000      0.1449951
  133.9471503      0.7247072      0.3937237      1.5500000      0.1418021
  133.4745911      0.7378994      0.4015982      1.5500000      0.1442540
  132.9816748      0.7512586      0.4096301      1.5500000      0.1296325
  132.4676054      0.7647807      0.4178227      1.5500000      0.1165475
  131.9315742      0.7784610      0.4261792      1.5500000      0.1373249
  131.3727636      0.7922940      0.4347028      1.5500000      0.1302938
  130.7903504      0.8062737      0.4433968      1.5500000      0.1288719
  130.1835109      0.8203933      0.4522648      1.5500000      0.1288880
  129.5514254      0.8346451      0.4613101      1.5500000      0.1449734
  128.8932847      0.8490205      0.4705363      1.5500000      0.1606182
  128.2082964      0.8635104      0.4799470      1.5500000      0.2167394
  127.4956927      0.8781045      0.4895459      1.5500000      0.1975112
  126.7547389      0.8927916      0.4993368      1.5500000      0.2536147
  125.9847421      0.9075597      0.5093236      1.5500000      0.2674549
  125.1850613      0.9223957      0.5195101      1.5500000      0.2257578
  124.3551180      0.9372857      0.5299003      1.5500000      0.2146197
  123.4944071      0.9522148      0.5404983      1.5500000      0.3127546
  122.6025084      0.9671674      0.5513082      1.5500000      0.2358130
  121.6790985      0.9821267      0.5623344      1.5500000      0.3297750
  120.7239619      0.9970755      0.5735811      1.5500000      0.2986673
  119.7370027      1.0119956      0.5850527      1.5500000      0.1488414
  118.7182549      1.0268684      0.5967538      1.5500000      0.0367664
  117.6678922      1.0416748      0.6086888      1.5500000      0.0109003
  116.5862362      1.0563952      0.6208626      1.5500000      0.0074227
  115.4737631      1.0710100      0.6332799      1.5500000      0.0000294
  149.4676212      0.2315311      0.1200000      1.6500000      0.1418928
  149.4338745      0.2361427      0.1224000      1.6500000      0.1426906
  149.3987348      0.2408454      0.1248480      1.6500000      0.1586974
  149.3621434      0.2456408      0.1273450      1.6500000      0.1471417
  149.3240390      0.2505308      0.1298919      1.6500000      0.1567110
  149.2843576      0.2555171      0.1324897      1.6500000      0.1553706
  149.2430325      0.2606017      0.1351395      1.6500000      0.1631983
  149.1999939      0.2657862      0.1378423      1.6500000      0.1610692
  149.1551691      0.2710727      0.1405991      1.6500000      0.1637166
  149.1084820      0.2764631      0.1434111      1.6500000      0.1643548
  149.0598532      0.2819592      0.1462793      1.6500000      0.1623680
  149.0091997      0.2875632      0.1492049      1.6500000      0.1694835
  148.9564349      0.2932770      0.1521890      1.6500000      0.1650375
  148.9014682      0.2991026      0.1552328      1.6500000      0.1631051
  148.8442048      0.3050422      0.1583375      1.6500000      0.1669607
  148.7845459      0.3110979      0.1615042      1.6500000      0.1697234
  148.7223881      0.3172717      0.1647343      1.6500000      0.1613992
  148.6576232      0.3235659      0.1680290      1.6500000      0.1641539
  148.5901381      0.3299826      0.1713895      1.6500000      0.1671652
  148.5198145      0.3365241      0.1748173      1.6500000      0.1673198
  148.4465288      0.3431927      0.1783137      1.6500000      0.1674840
  148.3701515      0.3499905      0.1818800      1.6500000      0.1683700
  148.2905472      0.3569200      0.1855176      1.6500000      0.1654274
  148.2075741      0.3639835      0.1892279      1.6500000      0.1621303
  148.1210839      0.3711832      0.1930125      1.6500000      0.1654663
  148.0309214      0.3785217      0.1968727      1.6500000      0.1663783
  147.9369238      0.3860013      0.2008102      1.6500000      0.1631341
  147.8389210      0.3936244      0.2048264      1.6500000      0.1672768
  147.7367345      0.4013935      0.2089229      1.6500000      0.1690971
  147.6301776      0.4093111      0.2131014      1.6500000      0.1646339
  147.5190546      0.4173796      0.2173634      1.6500000      0.1658526
  147.4031602      0.4256016      0.2217107      1.6500000      0.1705444
  147.2822795      0.4339795      0.2261449      1.6500000      0.1687622
  147.1561873      0.4425158      0.2306678      1.6500000      0.1654852
  147.0246474      0.4512131      0.2352811      1.6500000      0.1679136
  146.8874119      0.4600739      0.2399867      1.6500000      0.1664685
  146.7442214      0.4691007      0.2447865      1.6500000      0.1671772
  146.5948034      0.4782960      0.2496822      1.6500000      0.1637888
  146.4388724      0.4876622      0.2546759      1.6500000      0.1649874
  146.2761286      0.4972020      0.2597694      1.6500000      0.1649098
  146.1062580      0.5069176      0.2649648      1.6500000      0.1554644
  145.9289307      0.5168115      0.2702641      1.6500000      0.1667469
  145.7438010      0.5268861      0.2756693      1.6500000      0.1627573
  145.5505061      0.5371437      0.2811827      1.6500000      0.1615537
  145.3486653      0.5475865      0.2868064      1.6500000      0.1620448
  145.1378795      0.5582168      0.2925425      1.6500000      0.1614964
  144.9177298      0.5690366      0.2983934      1.6500000      0.1616262
  144.6877772      0.5800480      0.3043612      1.6500000      0.1606241
  144.4475611      0.5912529      0.3104484      1.6500000      0.1613744
  144.1965989      0.6026531      0.3166574      1.6500000      0.1643893
  143.9343846      0.6142502      0.3229906      1.6500000      0.1640489
  143.6603882      0.6260457      0.3294504      1.6500000      0.1661269
  143.3740546      0.6380409      0.3360394      1.6500000      0.1842641
  143.0748030      0.6502370      0.3427602      1.6500000      0.1679877
  142.7620255      0.6626349      0.3496154      1.6500000      0.1638766
  142.4350868      0.6752351      0.3566077      1.6500000      0.1789515
  142.0933234      0.6880382      0.3637398      1.6500000      0.1810407
  141.7360426      0.7010441      0.3710146      1.6500000      0.1795095
  141.3625227      0.7142526      0.3784349      1.6500000      0.1818318
  140.9720119      0.7276631      0.3860036      1.6500000      0.1878138
  140.5637289      0.7412745      0.3937237      1.6500000      0.1912342
  140.1368624      0.7550852      0.4015982      1.6500000      0.2050529
  139.6905722      0.7690934      0.4096301      1.6500000      0.1965715
  139.2239892      0.7832964      0.4178227      1.6500000      0.1876834
  138.7362173      0.7976911      0.4261792      1.6500000      0.2307083
  138.2263347      0.8122738      0.4347028      1.6500000      0.2097580
  137.6933963      0.8270399      0.4433968      1.6500000      0.1940987
  137.1364366      0.8419843      0.4522648      1.6500000      0.1783698
  136.5544732      0.8571008      0.4613101      1.6500000      0.1755989
  135.9465116      0.8723826      0.4705363      1.6500000      0.1688333
  135.3115502      0.8878218      0.4799470      1.6500000      0.1946368
  134.6485868      0.9034096      0.4895459      1.6500000      0.1546783
  133.9566263      0.9191362      0.4993368      1.6500000      0.1750074
  133.2346889      0.9349906      0.5093236      1.6500000      0.1710879
  132.4818203      0.9509606      0.5195101      1.6500000      0.1391414
  131.6971025      0.9670331      0.5299003      1.6500000      0.1404535
  130.8796664      0.9831937      0.5404983      1.6500000      0.2243347
  130.0287045      0.9994266      0.5513082      1.6500000      0.1793206
  129.1434864      1.0157150      0.5623344      1.6500000      0.1616785
  128.2233732      1.0320408      0.5735811      1.6500000      0.0464344
  127.2678340      1.0483850      0.5850527      1.6500000      0.0146845
  126.2764622      1.0647271      0.5967538      1.6500000      0.0007752
  149.9934032      0.5997311      0.3104484      1.7500000      0.2259767
  149.7753225      0.6114126      0.3166574      1.7500000      0.2279439
  149.5472374      0.6233044      0.3229906      1.7500000      0.2304186
  149.3086532      0.6354088      0.3294504      1.7500000      0.2414887
  149.0590491      0.6477280      0.3360394      1.7500000      0.2701964
  148.7978768      0.6602641      0.3427602      1.7500000      0.2561361
  148.5245595      0.6730190      0.3496154      1.7500000      0.2544816
  148.2384904      0.6859943      0.3566077      1.7500000      0.2778141
  147.9390315      0.6991916      0.3637398      1.7500000      0.2962948
  147.6255120      0.7126121      0.3710146      1.7500000      0.3019670
  147.2972274      0.7262569      0.3784349      1.7500000      0.3121922
  146.9534380      0.7401266      0.3860036      1.7500000      0.3268725
  146.5933679      0.7542217      0.3937237      1.7500000      0.3410902
  146.2162038      0.7685422      0.4015982      1.7500000      0.3722628
  145.8210944      0.7830876      0.4096301      1.7500000      0.3671107
  145.4071496      0.7978570      0.4178227      1.7500000      0.3569076
  144.9734399      0.8128492      0.4261792      1.7500000      0.4472745
  144.5189969      0.8280621      0.4347028      1.7500000      0.4240153
  144.0428130      0.8434932      0.4433968      1.7500000      0.4090403
  143.5438428      0.8591392      0.4522648      1.7500000      0.4050154
  143.0210042      0.8749961      0.4613101      1.7500000      0.4337192
  142.4731806      0.8910591      0.4705363      1.7500000      0.4625185
  141.8992242      0.9073224      0.4799470      1.7500000      0.5893693
  141.2979594      0.9237793      0.4895459      1.7500000      0.5236734
  140.6681885      0.9404220      0.4993368      1.7500000      0.6753042
  140.0086973      0.9572417      0.5093236      1.7500000      0.7215811
  139.3182636      0.9742281      0.5195101      1.7500000      0.6345359
  138.5956658      0.9913699      0.5299003      1.7500000      0.6150899
  137.8396942      1.0086543      0.5404983      1.7500000      0.5161101
  137.0491635      1.0260670      0.5513082      1.7500000      0.1268183
  136.2229276      1.0435924      0.5623344      1.7500000      0.0320794
  135.3598958      1.0612132      0.5735811      1.7500000      0.0008008
  149.7881688      0.8561511      0.4433968      1.8500000      0.1576465
  149.3513297      0.8723692      0.4522648      1.8500000      0.1694518
  148.8925032      0.8888332      0.4613101      1.8500000      0.1989648
  148.4105287      0.9055405      0.4705363      1.8500000      0.2300006
  147.9041938      0.9224878      0.4799470      1.8500000      0.3010732
  147.3722354      0.9396709      0.4895459      1.8500000      0.2853607
  146.8133417      0.9570848      0.4993368      1.8500000      0.3906783
  146.2261545      0.9747230      0.5093236      1.8500000      0.4386963
  145.6092738      0.9925783      0.5195101      1.8500000      0.3858304
  144.9612627      1.0106419      0.5299003      1.8500000      0.2454591
  144.2806555      1.0289038      0.5404983      1.8500000      0.0683232
  143.5659660      1.0473525      0.5513082      1.8500000      0.0200482
